Dataset wide:2(ito)
Dwell Time (s)	0.100000
Number of sweeps	3
Kinetic Energy(eV)	Binding Energy(eV)	Intensity(cps)	Transmission Value
286.690000	1200.000000	9943.333333	5.684839
287.190000	1199.500000	9923.333333	5.686933
287.690000	1199.000000	9836.666667	5.689028
288.190000	1198.500000	9836.666667	5.691123
288.690000	1198.000000	9906.666667	5.693218
289.190000	1197.500000	9973.333333	5.695312
289.690000	1197.000000	9906.666667	5.697407
290.190000	1196.500000	10200.000000	5.699502
290.690000	1196.000000	9883.333333	5.701597
291.190000	1195.500000	9786.666667	5.703692
291.690000	1195.000000	9743.333333	5.705786
292.190000	1194.500000	10003.333333	5.707881
292.690000	1194.000000	9880.000000	5.709976
293.190000	1193.500000	10060.000000	5.712071
293.690000	1193.000000	9820.000000	5.714165
294.190000	1192.500000	10043.333333	5.716260
294.690000	1192.000000	10340.000000	5.718355
295.190000	1191.500000	10263.333333	5.720450
295.690000	1191.000000	10120.000000	5.722545
296.190000	1190.500000	10233.333333	5.724639
296.690000	1190.000000	10253.333333	5.726734
297.190000	1189.500000	10153.333333	5.728829
297.690000	1189.000000	9973.333333	5.730924
298.190000	1188.500000	10023.333333	5.733018
298.690000	1188.000000	10006.666667	5.735113
299.190000	1187.500000	10010.000000	5.737208
299.690000	1187.000000	9910.000000	5.739303
300.190000	1186.500000	9783.333333	5.741397
300.690000	1186.000000	9983.333333	5.743492
301.190000	1185.500000	9906.666667	5.745587
301.690000	1185.000000	9730.000000	5.747682
302.190000	1184.500000	9693.333333	5.749777
302.690000	1184.000000	9570.000000	5.751871
303.190000	1183.500000	9640.000000	5.753966
303.690000	1183.000000	9780.000000	5.756061
304.190000	1182.500000	9506.666667	5.758156
304.690000	1182.000000	9676.666667	5.760250
305.190000	1181.500000	9283.333333	5.762345
305.690000	1181.000000	9626.666667	5.764440
306.190000	1180.500000	9690.000000	5.766535
306.690000	1180.000000	9600.000000	5.768630
307.190000	1179.500000	9746.666667	5.770724
307.690000	1179.000000	9840.000000	5.772819
308.190000	1178.500000	9773.333333	5.774914
308.690000	1178.000000	9403.333333	5.777009
309.190000	1177.500000	9686.666667	5.779103
309.690000	1177.000000	9736.666667	5.781198
310.190000	1176.500000	9363.333333	5.783293
310.690000	1176.000000	9713.333333	5.785388
311.190000	1175.500000	9480.000000	5.787483
311.690000	1175.000000	9563.333333	5.789577
312.190000	1174.500000	9806.666667	5.791672
312.690000	1174.000000	9906.666667	5.793767
313.190000	1173.500000	9776.666667	5.795862
313.690000	1173.000000	9606.666667	5.797956
314.190000	1172.500000	9463.333333	5.800051
314.690000	1172.000000	9576.666667	5.802146
315.190000	1171.500000	9643.333333	5.804241
315.690000	1171.000000	9870.000000	5.806335
316.190000	1170.500000	9880.000000	5.808430
316.690000	1170.000000	9646.666667	5.810525
317.190000	1169.500000	9766.666667	5.812620
317.690000	1169.000000	9900.000000	5.814715
318.190000	1168.500000	9730.000000	5.816809
318.690000	1168.000000	9850.000000	5.818904
319.190000	1167.500000	9806.666667	5.820999
319.690000	1167.000000	9783.333333	5.823094
320.190000	1166.500000	9936.666667	5.825188
320.690000	1166.000000	9593.333333	5.827283
321.190000	1165.500000	9600.000000	5.829378
321.690000	1165.000000	9993.333333	5.831473
322.190000	1164.500000	9660.000000	5.833568
322.690000	1164.000000	10173.333333	5.835662
323.190000	1163.500000	10006.666667	5.837757
323.690000	1163.000000	9843.333333	5.839852
324.190000	1162.500000	9730.000000	5.841947
324.690000	1162.000000	9966.666667	5.844041
325.190000	1161.500000	10136.666667	5.846136
325.690000	1161.000000	9786.666667	5.848231
326.190000	1160.500000	9806.666667	5.850326
326.690000	1160.000000	9890.000000	5.852421
327.190000	1159.500000	10136.666667	5.854515
327.690000	1159.000000	10030.000000	5.856610
328.190000	1158.500000	9980.000000	5.858705
328.690000	1158.000000	9983.333333	5.861690
329.190000	1157.500000	10073.333333	5.864780
329.690000	1157.000000	9836.666667	5.867871
330.190000	1156.500000	9706.666667	5.870961
330.690000	1156.000000	9760.000000	5.874052
331.190000	1155.500000	9743.333333	5.877142
331.690000	1155.000000	9976.666667	5.880232
332.190000	1154.500000	10073.333333	5.883323
332.690000	1154.000000	10020.000000	5.886413
333.190000	1153.500000	9890.000000	5.889504
333.690000	1153.000000	9906.666667	5.892594
334.190000	1152.500000	10056.666667	5.895685
334.690000	1152.000000	9940.000000	5.898775
335.190000	1151.500000	9746.666667	5.901866
335.690000	1151.000000	9916.666667	5.904956
336.190000	1150.500000	10000.000000	5.908046
336.690000	1150.000000	10000.000000	5.911137
337.190000	1149.500000	10170.000000	5.914227
337.690000	1149.000000	10083.333333	5.917318
338.190000	1148.500000	9896.666667	5.920408
338.690000	1148.000000	9900.000000	5.923499
339.190000	1147.500000	10023.333333	5.926589
339.690000	1147.000000	9990.000000	5.929680
340.190000	1146.500000	10033.333333	5.932770
340.690000	1146.000000	9763.333333	5.935860
341.190000	1145.500000	10136.666667	5.938951
341.690000	1145.000000	10126.666667	5.942041
342.190000	1144.500000	10120.000000	5.945132
342.690000	1144.000000	9723.333333	5.948222
343.190000	1143.500000	9826.666667	5.951313
343.690000	1143.000000	9763.333333	5.954403
344.190000	1142.500000	9800.000000	5.957494
344.690000	1142.000000	9600.000000	5.960584
345.190000	1141.500000	9560.000000	5.963674
345.690000	1141.000000	9416.666667	5.966765
346.190000	1140.500000	9516.666667	5.969855
346.690000	1140.000000	9446.666667	5.972946
347.190000	1139.500000	9653.333333	5.976036
347.690000	1139.000000	9576.666667	5.979127
348.190000	1138.500000	9503.333333	5.982217
348.690000	1138.000000	9423.333333	5.985308
349.190000	1137.500000	9200.000000	5.988398
349.690000	1137.000000	9233.333333	5.991488
350.190000	1136.500000	9160.000000	5.994579
350.690000	1136.000000	9203.333333	5.997669
351.190000	1135.500000	8916.666667	6.000760
351.690000	1135.000000	9036.666667	6.003850
352.190000	1134.500000	8886.666667	6.006941
352.690000	1134.000000	9066.666667	6.010031
353.190000	1133.500000	9090.000000	6.013122
353.690000	1133.000000	9360.000000	6.016212
354.190000	1132.500000	8910.000000	6.019302
354.690000	1132.000000	8833.333333	6.022393
355.190000	1131.500000	8863.333333	6.025483
355.690000	1131.000000	8780.000000	6.028574
356.190000	1130.500000	8536.666667	6.031664
356.690000	1130.000000	9010.000000	6.034755
357.190000	1129.500000	9146.666667	6.037845
357.690000	1129.000000	8836.666667	6.040936
358.190000	1128.500000	8806.666667	6.044026
358.690000	1128.000000	8860.000000	6.047116
359.190000	1127.500000	8700.000000	6.050207
359.690000	1127.000000	8750.000000	6.053297
360.190000	1126.500000	8753.333333	6.056388
360.690000	1126.000000	8843.333333	6.059478
361.190000	1125.500000	8953.333333	6.062569
361.690000	1125.000000	8870.000000	6.065659
362.190000	1124.500000	8743.333333	6.068749
362.690000	1124.000000	8836.666667	6.071840
363.190000	1123.500000	8706.666667	6.074930
363.690000	1123.000000	8943.333333	6.078021
364.190000	1122.500000	9006.666667	6.081111
364.690000	1122.000000	8943.333333	6.084202
365.190000	1121.500000	8816.666667	6.087292
365.690000	1121.000000	8793.333333	6.090383
366.190000	1120.500000	8863.333333	6.093473
366.690000	1120.000000	9013.333333	6.096563
367.190000	1119.500000	8920.000000	6.099654
367.690000	1119.000000	8913.333333	6.102744
368.190000	1118.500000	9163.333333	6.105835
368.690000	1118.000000	8886.666667	6.108925
369.190000	1117.500000	8856.666667	6.112016
369.690000	1117.000000	8903.333333	6.115106
370.190000	1116.500000	8683.333333	6.118197
370.690000	1116.000000	9036.666667	6.121287
371.190000	1115.500000	9153.333333	6.124377
371.690000	1115.000000	9013.333333	6.127468
372.190000	1114.500000	8826.666667	6.130558
372.690000	1114.000000	8980.000000	6.133649
373.190000	1113.500000	9170.000000	6.136739
373.690000	1113.000000	9256.666667	6.139830
374.190000	1112.500000	9236.666667	6.142920
374.690000	1112.000000	9423.333333	6.146011
375.190000	1111.500000	9020.000000	6.149101
375.690000	1111.000000	8826.666667	6.152191
376.190000	1110.500000	9180.000000	6.155282
376.690000	1110.000000	9193.333333	6.158372
377.190000	1109.500000	9293.333333	6.161463
377.690000	1109.000000	9213.333333	6.164553
378.190000	1108.500000	9253.333333	6.167644
378.690000	1108.000000	9286.666667	6.170734
379.190000	1107.500000	9230.000000	6.173825
379.690000	1107.000000	9010.000000	6.176915
380.190000	1106.500000	9183.333333	6.180005
380.690000	1106.000000	9180.000000	6.183096
381.190000	1105.500000	9253.333333	6.186186
381.690000	1105.000000	9550.000000	6.189277
382.190000	1104.500000	9286.666667	6.192367
382.690000	1104.000000	9353.333333	6.195458
383.190000	1103.500000	9470.000000	6.198548
383.690000	1103.000000	9276.666667	6.201639
384.190000	1102.500000	9740.000000	6.204729
384.690000	1102.000000	9590.000000	6.207819
385.190000	1101.500000	9313.333333	6.210910
385.690000	1101.000000	9256.666667	6.214000
386.190000	1100.500000	9316.666667	6.217091
386.690000	1100.000000	9436.666667	6.220181
387.190000	1099.500000	9260.000000	6.223272
387.690000	1099.000000	9390.000000	6.226362
388.190000	1098.500000	9476.666667	6.229453
388.690000	1098.000000	9183.333333	6.232543
389.190000	1097.500000	9213.333333	6.235633
389.690000	1097.000000	9470.000000	6.238724
390.190000	1096.500000	9306.666667	6.241814
390.690000	1096.000000	9333.333333	6.244905
391.190000	1095.500000	9346.666667	6.247995
391.690000	1095.000000	9410.000000	6.251086
392.190000	1094.500000	9386.666667	6.254176
392.690000	1094.000000	9270.000000	6.257267
393.190000	1093.500000	9380.000000	6.260357
393.690000	1093.000000	9313.333333	6.263447
394.190000	1092.500000	9476.666667	6.266538
394.690000	1092.000000	9886.666667	6.269628
395.190000	1091.500000	9926.666667	6.272719
395.690000	1091.000000	10123.333333	6.275809
396.190000	1090.500000	10353.333333	6.278900
396.690000	1090.000000	10486.666667	6.281990
397.190000	1089.500000	11186.666667	6.285081
397.690000	1089.000000	11433.333333	6.288171
398.190000	1088.500000	12113.333333	6.291261
398.690000	1088.000000	12543.333333	6.294352
399.190000	1087.500000	12753.333333	6.297442
399.690000	1087.000000	13476.666667	6.300533
400.190000	1086.500000	13610.000000	6.303623
400.690000	1086.000000	13663.333333	6.306714
401.190000	1085.500000	13700.000000	6.309804
401.690000	1085.000000	13323.333333	6.312895
402.190000	1084.500000	12760.000000	6.315985
402.690000	1084.000000	11970.000000	6.319075
403.190000	1083.500000	11753.333333	6.322166
403.690000	1083.000000	11446.666667	6.325256
404.190000	1082.500000	11026.666667	6.328347
404.690000	1082.000000	11040.000000	6.331437
405.190000	1081.500000	11110.000000	6.334528
405.690000	1081.000000	11140.000000	6.337618
406.190000	1080.500000	11070.000000	6.340709
406.690000	1080.000000	11186.666667	6.343799
407.190000	1079.500000	11200.000000	6.346889
407.690000	1079.000000	11276.666667	6.349980
408.190000	1078.500000	10850.000000	6.353070
408.690000	1078.000000	10500.000000	6.356161
409.190000	1077.500000	9656.666667	6.359251
409.690000	1077.000000	9306.666667	6.362342
410.190000	1076.500000	8786.666667	6.365432
410.690000	1076.000000	8370.000000	6.368523
411.190000	1075.500000	8156.666667	6.371613
411.690000	1075.000000	7953.333333	6.374703
412.190000	1074.500000	7856.666667	6.377794
412.690000	1074.000000	7706.666667	6.380884
413.190000	1073.500000	7373.333333	6.383975
413.690000	1073.000000	7486.666667	6.387065
414.190000	1072.500000	7363.333333	6.390156
414.690000	1072.000000	7453.333333	6.393246
415.190000	1071.500000	7170.000000	6.396337
415.690000	1071.000000	7440.000000	6.399427
416.190000	1070.500000	7640.000000	6.402517
416.690000	1070.000000	7403.333333	6.405608
417.190000	1069.500000	7316.666667	6.408698
417.690000	1069.000000	7410.000000	6.411789
418.190000	1068.500000	7550.000000	6.414879
418.690000	1068.000000	7723.333333	6.417970
419.190000	1067.500000	7776.666667	6.421060
419.690000	1067.000000	7690.000000	6.424151
420.190000	1066.500000	7313.333333	6.427241
420.690000	1066.000000	7676.666667	6.430331
421.190000	1065.500000	7636.666667	6.433422
421.690000	1065.000000	7653.333333	6.436512
422.190000	1064.500000	7900.000000	6.439603
422.690000	1064.000000	7756.666667	6.442693
423.190000	1063.500000	7620.000000	6.445784
423.690000	1063.000000	7430.000000	6.448874
424.190000	1062.500000	7970.000000	6.451965
424.690000	1062.000000	7766.666667	6.455055
425.190000	1061.500000	7703.333333	6.458145
425.690000	1061.000000	8093.333333	6.461236
426.190000	1060.500000	7836.666667	6.464326
426.690000	1060.000000	8070.000000	6.467417
427.190000	1059.500000	7933.333333	6.470507
427.690000	1059.000000	7986.666667	6.473598
428.190000	1058.500000	7683.333333	6.476688
428.690000	1058.000000	7563.333333	6.479779
429.190000	1057.500000	7380.000000	6.482869
429.690000	1057.000000	7730.000000	6.485959
430.190000	1056.500000	7346.666667	6.489050
430.690000	1056.000000	7253.333333	6.492140
431.190000	1055.500000	7426.666667	6.495231
431.690000	1055.000000	7496.666667	6.498321
432.190000	1054.500000	7510.000000	6.501412
432.690000	1054.000000	7566.666667	6.504502
433.190000	1053.500000	7606.666667	6.507593
433.690000	1053.000000	7656.666667	6.510683
434.190000	1052.500000	7266.666667	6.513773
434.690000	1052.000000	7236.666667	6.516864
435.190000	1051.500000	7063.333333	6.519954
435.690000	1051.000000	7396.666667	6.523045
436.190000	1050.500000	7203.333333	6.526135
436.690000	1050.000000	7246.666667	6.529226
437.190000	1049.500000	7120.000000	6.532316
437.690000	1049.000000	7203.333333	6.535407
438.190000	1048.500000	7170.000000	6.538497
438.690000	1048.000000	6946.666667	6.541587
439.190000	1047.500000	7150.000000	6.544678
439.690000	1047.000000	7130.000000	6.547768
440.190000	1046.500000	7043.333333	6.550859
440.690000	1046.000000	7340.000000	6.553949
441.190000	1045.500000	7076.666667	6.557040
441.690000	1045.000000	7170.000000	6.560130
442.190000	1044.500000	7093.333333	6.563221
442.690000	1044.000000	7146.666667	6.566311
443.190000	1043.500000	7150.000000	6.569401
443.690000	1043.000000	7050.000000	6.572492
444.190000	1042.500000	7133.333333	6.575582
444.690000	1042.000000	7076.666667	6.578673
445.190000	1041.500000	7313.333333	6.581763
445.690000	1041.000000	7306.666667	6.584854
446.190000	1040.500000	7193.333333	6.587944
446.690000	1040.000000	7206.666667	6.591035
447.190000	1039.500000	6990.000000	6.594125
447.690000	1039.000000	7186.666667	6.597215
448.190000	1038.500000	7246.666667	6.600306
448.690000	1038.000000	7203.333333	6.603396
449.190000	1037.500000	7213.333333	6.606487
449.690000	1037.000000	7086.666667	6.609577
450.190000	1036.500000	7100.000000	6.612668
450.690000	1036.000000	7123.333333	6.615758
451.190000	1035.500000	7313.333333	6.618849
451.690000	1035.000000	7466.666667	6.621939
452.190000	1034.500000	7456.666667	6.625029
452.690000	1034.000000	7400.000000	6.628120
453.190000	1033.500000	7323.333333	6.631210
453.690000	1033.000000	7406.666667	6.634301
454.190000	1032.500000	7383.333333	6.637391
454.690000	1032.000000	7410.000000	6.640482
455.190000	1031.500000	7483.333333	6.643572
455.690000	1031.000000	7263.333333	6.646663
456.190000	1030.500000	7383.333333	6.649741
456.690000	1030.000000	7303.333333	6.652792
457.190000	1029.500000	7240.000000	6.655844
457.690000	1029.000000	7363.333333	6.658895
458.190000	1028.500000	7353.333333	6.661947
458.690000	1028.000000	7603.333333	6.664998
459.190000	1027.500000	7550.000000	6.668050
459.690000	1027.000000	7606.666667	6.671101
460.190000	1026.500000	7220.000000	6.674153
460.690000	1026.000000	7440.000000	6.677204
461.190000	1025.500000	7616.666667	6.680256
461.690000	1025.000000	7673.333333	6.683308
462.190000	1024.500000	7480.000000	6.686359
462.690000	1024.000000	7463.333333	6.689411
463.190000	1023.500000	7510.000000	6.692462
463.690000	1023.000000	7620.000000	6.695514
464.190000	1022.500000	7583.333333	6.698565
464.690000	1022.000000	7510.000000	6.701617
465.190000	1021.500000	7563.333333	6.704668
465.690000	1021.000000	7593.333333	6.707720
466.190000	1020.500000	7593.333333	6.710772
466.690000	1020.000000	7740.000000	6.713823
467.190000	1019.500000	7646.666667	6.716875
467.690000	1019.000000	7723.333333	6.719926
468.190000	1018.500000	7796.666667	6.722978
468.690000	1018.000000	7460.000000	6.726029
469.190000	1017.500000	7433.333333	6.729081
469.690000	1017.000000	7683.333333	6.732132
470.190000	1016.500000	7650.000000	6.735184
470.690000	1016.000000	7560.000000	6.738235
471.190000	1015.500000	7640.000000	6.741287
471.690000	1015.000000	7913.333333	6.744339
472.190000	1014.500000	7816.666667	6.747390
472.690000	1014.000000	7830.000000	6.750442
473.190000	1013.500000	7750.000000	6.753493
473.690000	1013.000000	7716.666667	6.756545
474.190000	1012.500000	7570.000000	6.759596
474.690000	1012.000000	7843.333333	6.762648
475.190000	1011.500000	7950.000000	6.765699
475.690000	1011.000000	8013.333333	6.768751
476.190000	1010.500000	7846.666667	6.771803
476.690000	1010.000000	7933.333333	6.774854
477.190000	1009.500000	8020.000000	6.777906
477.690000	1009.000000	8050.000000	6.780957
478.190000	1008.500000	7970.000000	6.784009
478.690000	1008.000000	8066.666667	6.787060
479.190000	1007.500000	7986.666667	6.790112
479.690000	1007.000000	8100.000000	6.793163
480.190000	1006.500000	7846.666667	6.796215
480.690000	1006.000000	7846.666667	6.799266
481.190000	1005.500000	7960.000000	6.802318
481.690000	1005.000000	7813.333333	6.805370
482.190000	1004.500000	7666.666667	6.808421
482.690000	1004.000000	7940.000000	6.811473
483.190000	1003.500000	7830.000000	6.814524
483.690000	1003.000000	7666.666667	6.817576
484.190000	1002.500000	7870.000000	6.820627
484.690000	1002.000000	7946.666667	6.823679
485.190000	1001.500000	7960.000000	6.826730
485.690000	1001.000000	7860.000000	6.829782
486.190000	1000.500000	8030.000000	6.832834
486.690000	1000.000000	8306.666667	6.835885
487.190000	999.500000	8036.666667	6.838937
487.690000	999.000000	8113.333333	6.841988
488.190000	998.500000	8473.333333	6.845040
488.690000	998.000000	8333.333333	6.848091
489.190000	997.500000	8450.000000	6.851143
489.690000	997.000000	8366.666667	6.854194
490.190000	996.500000	8546.666667	6.857246
490.690000	996.000000	8526.666667	6.860297
491.190000	995.500000	8223.333333	6.863349
491.690000	995.000000	8450.000000	6.866401
492.190000	994.500000	8466.666667	6.869452
492.690000	994.000000	8546.666667	6.872504
493.190000	993.500000	8403.333333	6.875555
493.690000	993.000000	8670.000000	6.878607
494.190000	992.500000	8370.000000	6.881658
494.690000	992.000000	8446.666667	6.884710
495.190000	991.500000	8363.333333	6.887761
495.690000	991.000000	8333.333333	6.890813
496.190000	990.500000	8470.000000	6.893865
496.690000	990.000000	8243.333333	6.896916
497.190000	989.500000	8290.000000	6.899968
497.690000	989.000000	8173.333333	6.903019
498.190000	988.500000	8206.666667	6.906071
498.690000	988.000000	8376.666667	6.909122
499.190000	987.500000	8453.333333	6.912174
499.690000	987.000000	8190.000000	6.915225
500.190000	986.500000	8190.000000	6.918277
500.690000	986.000000	8113.333333	6.921328
501.190000	985.500000	8300.000000	6.924380
501.690000	985.000000	8123.333333	6.927432
502.190000	984.500000	8143.333333	6.930483
502.690000	984.000000	8156.666667	6.933535
503.190000	983.500000	8080.000000	6.936586
503.690000	983.000000	8146.666667	6.939638
504.190000	982.500000	8146.666667	6.942689
504.690000	982.000000	8006.666667	6.945741
505.190000	981.500000	8196.666667	6.948792
505.690000	981.000000	8260.000000	6.951844
506.190000	980.500000	8280.000000	6.954896
506.690000	980.000000	8216.666667	6.957947
507.190000	979.500000	8570.000000	6.960999
507.690000	979.000000	8336.666667	6.964050
508.190000	978.500000	8623.333333	6.967102
508.690000	978.000000	8753.333333	6.970153
509.190000	977.500000	8730.000000	6.973205
509.690000	977.000000	9156.666667	6.976256
510.190000	976.500000	9416.666667	6.979308
510.690000	976.000000	9913.333333	6.982359
511.190000	975.500000	10133.333333	6.985411
511.690000	975.000000	10406.666667	6.988463
512.190000	974.500000	10486.666667	6.991514
512.690000	974.000000	10290.000000	6.994566
513.190000	973.500000	10140.000000	6.997617
513.690000	973.000000	9826.666667	7.000669
514.190000	972.500000	9220.000000	7.003720
514.690000	972.000000	9136.666667	7.006772
515.190000	971.500000	8906.666667	7.009823
515.690000	971.000000	8760.000000	7.012875
516.190000	970.500000	8733.333333	7.015927
516.690000	970.000000	8540.000000	7.018978
517.190000	969.500000	8396.666667	7.022030
517.690000	969.000000	8193.333333	7.025081
518.190000	968.500000	8246.666667	7.028133
518.690000	968.000000	8290.000000	7.031184
519.190000	967.500000	8096.666667	7.034236
519.690000	967.000000	8130.000000	7.037287
520.190000	966.500000	7813.333333	7.040339
520.690000	966.000000	7960.000000	7.043390
521.190000	965.500000	7853.333333	7.046442
521.690000	965.000000	7806.666667	7.049494
522.190000	964.500000	7776.666667	7.052545
522.690000	964.000000	7676.666667	7.055597
523.190000	963.500000	7866.666667	7.058648
523.690000	963.000000	7556.666667	7.061700
524.190000	962.500000	7686.666667	7.064751
524.690000	962.000000	7790.000000	7.067803
525.190000	961.500000	7600.000000	7.070854
525.690000	961.000000	7690.000000	7.073906
526.190000	960.500000	7646.666667	7.076958
526.690000	960.000000	7600.000000	7.080009
527.190000	959.500000	7470.000000	7.083061
527.690000	959.000000	7690.000000	7.086112
528.190000	958.500000	7673.333333	7.089164
528.690000	958.000000	7606.666667	7.092215
529.190000	957.500000	7470.000000	7.095267
529.690000	957.000000	7410.000000	7.098318
530.190000	956.500000	7646.666667	7.101370
530.690000	956.000000	7663.333333	7.104421
531.190000	955.500000	7450.000000	7.107473
531.690000	955.000000	7646.666667	7.110525
532.190000	954.500000	7650.000000	7.113576
532.690000	954.000000	7660.000000	7.116628
533.190000	953.500000	7730.000000	7.119679
533.690000	953.000000	7660.000000	7.122731
534.190000	952.500000	7763.333333	7.125782
534.690000	952.000000	7733.333333	7.128834
535.190000	951.500000	7830.000000	7.131885
535.690000	951.000000	7623.333333	7.134937
536.190000	950.500000	7670.000000	7.137989
536.690000	950.000000	7900.000000	7.141040
537.190000	949.500000	7976.666667	7.144092
537.690000	949.000000	7953.333333	7.147143
538.190000	948.500000	7606.666667	7.150195
538.690000	948.000000	7473.333333	7.153246
539.190000	947.500000	7620.000000	7.156298
539.690000	947.000000	7853.333333	7.159349
540.190000	946.500000	8050.000000	7.162401
540.690000	946.000000	7883.333333	7.165452
541.190000	945.500000	7920.000000	7.168504
541.690000	945.000000	7810.000000	7.171556
542.190000	944.500000	7870.000000	7.174607
542.690000	944.000000	7700.000000	7.177659
543.190000	943.500000	7513.333333	7.180710
543.690000	943.000000	7876.666667	7.183762
544.190000	942.500000	7686.666667	7.186813
544.690000	942.000000	7953.333333	7.189865
545.190000	941.500000	7813.333333	7.192916
545.690000	941.000000	7963.333333	7.195968
546.190000	940.500000	8136.666667	7.199020
546.690000	940.000000	8180.000000	7.202071
547.190000	939.500000	8356.666667	7.205123
547.690000	939.000000	7940.000000	7.208174
548.190000	938.500000	7593.333333	7.211226
548.690000	938.000000	7666.666667	7.214277
549.190000	937.500000	7873.333333	7.217329
549.690000	937.000000	7980.000000	7.220380
550.190000	936.500000	8020.000000	7.223432
550.690000	936.000000	7950.000000	7.226483
551.190000	935.500000	8283.333333	7.229535
551.690000	935.000000	8160.000000	7.232587
552.190000	934.500000	8053.333333	7.235638
552.690000	934.000000	7996.666667	7.238690
553.190000	933.500000	8053.333333	7.241741
553.690000	933.000000	8076.666667	7.244793
554.190000	932.500000	8056.666667	7.247844
554.690000	932.000000	7936.666667	7.250896
555.190000	931.500000	8066.666667	7.253947
555.690000	931.000000	7870.000000	7.256999
556.190000	930.500000	8033.333333	7.260051
556.690000	930.000000	8050.000000	7.263102
557.190000	929.500000	7963.333333	7.266154
557.690000	929.000000	8446.666667	7.269205
558.190000	928.500000	8273.333333	7.272257
558.690000	928.000000	8273.333333	7.275308
559.190000	927.500000	7976.666667	7.278360
559.690000	927.000000	8076.666667	7.281411
560.190000	926.500000	8126.666667	7.284463
560.690000	926.000000	8223.333333	7.287514
561.190000	925.500000	8036.666667	7.290566
561.690000	925.000000	8020.000000	7.293618
562.190000	924.500000	8186.666667	7.296669
562.690000	924.000000	8380.000000	7.299721
563.190000	923.500000	8283.333333	7.302772
563.690000	923.000000	8146.666667	7.305824
564.190000	922.500000	8203.333333	7.308875
564.690000	922.000000	8360.000000	7.311927
565.190000	921.500000	8446.666667	7.314978
565.690000	921.000000	8106.666667	7.318030
566.190000	920.500000	8186.666667	7.321082
566.690000	920.000000	8383.333333	7.324133
567.190000	919.500000	8436.666667	7.327185
567.690000	919.000000	8206.666667	7.330236
568.190000	918.500000	8506.666667	7.333288
568.690000	918.000000	8356.666667	7.336339
569.190000	917.500000	8413.333333	7.339391
569.690000	917.000000	8570.000000	7.342442
570.190000	916.500000	8460.000000	7.345494
570.690000	916.000000	8470.000000	7.348545
571.190000	915.500000	8163.333333	7.351597
571.690000	915.000000	8480.000000	7.354649
572.190000	914.500000	8373.333333	7.357700
572.690000	914.000000	8546.666667	7.360752
573.190000	913.500000	8596.666667	7.363803
573.690000	913.000000	8380.000000	7.366855
574.190000	912.500000	8346.666667	7.369906
574.690000	912.000000	8426.666667	7.372958
575.190000	911.500000	8566.666667	7.376009
575.690000	911.000000	8376.666667	7.379061
576.190000	910.500000	8333.333333	7.382113
576.690000	910.000000	8683.333333	7.385164
577.190000	909.500000	8506.666667	7.388216
577.690000	909.000000	8730.000000	7.391267
578.190000	908.500000	8340.000000	7.394319
578.690000	908.000000	8463.333333	7.397370
579.190000	907.500000	8550.000000	7.400422
579.690000	907.000000	8406.666667	7.403473
580.190000	906.500000	8590.000000	7.406525
580.690000	906.000000	8433.333333	7.409576
581.190000	905.500000	8660.000000	7.412628
581.690000	905.000000	8773.333333	7.415680
582.190000	904.500000	8710.000000	7.418731
582.690000	904.000000	8646.666667	7.421783
583.190000	903.500000	8483.333333	7.424834
583.690000	903.000000	8546.666667	7.427886
584.190000	902.500000	8813.333333	7.430937
584.690000	902.000000	8716.666667	7.433989
585.190000	901.500000	8596.666667	7.437040
585.690000	901.000000	8533.333333	7.440092
586.190000	900.500000	8806.666667	7.443144
586.690000	900.000000	8516.666667	7.446195
587.190000	899.500000	8456.666667	7.449247
587.690000	899.000000	8680.000000	7.452298
588.190000	898.500000	8713.333333	7.455350
588.690000	898.000000	8740.000000	7.458401
589.190000	897.500000	8640.000000	7.461453
589.690000	897.000000	8810.000000	7.464504
590.190000	896.500000	8976.666667	7.467556
590.690000	896.000000	8873.333333	7.470607
591.190000	895.500000	8783.333333	7.473659
591.690000	895.000000	8826.666667	7.476711
592.190000	894.500000	8823.333333	7.479762
592.690000	894.000000	8716.666667	7.482814
593.190000	893.500000	8906.666667	7.485865
593.690000	893.000000	8863.333333	7.488917
594.190000	892.500000	8750.000000	7.491968
594.690000	892.000000	8643.333333	7.495020
595.190000	891.500000	8650.000000	7.498071
595.690000	891.000000	8613.333333	7.501123
596.190000	890.500000	8930.000000	7.504175
596.690000	890.000000	8996.666667	7.507226
597.190000	889.500000	8756.666667	7.510278
597.690000	889.000000	8940.000000	7.513329
598.190000	888.500000	9286.666667	7.516381
598.690000	888.000000	9220.000000	7.519432
599.190000	887.500000	9066.666667	7.522484
599.690000	887.000000	9153.333333	7.525535
600.190000	886.500000	8963.333333	7.528587
600.690000	886.000000	8943.333333	7.531639
601.190000	885.500000	9350.000000	7.534690
601.690000	885.000000	8900.000000	7.537742
602.190000	884.500000	9220.000000	7.540793
602.690000	884.000000	8790.000000	7.543845
603.190000	883.500000	9270.000000	7.546896
603.690000	883.000000	9023.333333	7.549948
604.190000	882.500000	8876.666667	7.552999
604.690000	882.000000	8993.333333	7.556051
605.190000	881.500000	9023.333333	7.559102
605.690000	881.000000	9023.333333	7.562154
606.190000	880.500000	9000.000000	7.565206
606.690000	880.000000	9040.000000	7.568257
607.190000	879.500000	9000.000000	7.571309
607.690000	879.000000	8960.000000	7.574360
608.190000	878.500000	8990.000000	7.577412
608.690000	878.000000	9013.333333	7.580463
609.190000	877.500000	8990.000000	7.583515
609.690000	877.000000	8920.000000	7.586566
610.190000	876.500000	9266.666667	7.589618
610.690000	876.000000	9343.333333	7.592670
611.190000	875.500000	9100.000000	7.595721
611.690000	875.000000	9086.666667	7.598773
612.190000	874.500000	9033.333333	7.601824
612.690000	874.000000	9196.666667	7.604876
613.190000	873.500000	9123.333333	7.607927
613.690000	873.000000	8973.333333	7.610979
614.190000	872.500000	9066.666667	7.614030
614.690000	872.000000	9156.666667	7.617082
615.190000	871.500000	9406.666667	7.620133
615.690000	871.000000	9173.333333	7.623185
616.190000	870.500000	9170.000000	7.626237
616.690000	870.000000	9293.333333	7.629288
617.190000	869.500000	9316.666667	7.632340
617.690000	869.000000	9070.000000	7.635391
618.190000	868.500000	9216.666667	7.638443
618.690000	868.000000	9476.666667	7.641494
619.190000	867.500000	9346.666667	7.644546
619.690000	867.000000	9320.000000	7.647597
620.190000	866.500000	9540.000000	7.650649
620.690000	866.000000	9393.333333	7.653701
621.190000	865.500000	9510.000000	7.656752
621.690000	865.000000	9403.333333	7.659804
622.190000	864.500000	9313.333333	7.662855
622.690000	864.000000	9293.333333	7.665907
623.190000	863.500000	9410.000000	7.668958
623.690000	863.000000	9226.666667	7.672010
624.190000	862.500000	9290.000000	7.675061
624.690000	862.000000	9826.666667	7.678113
625.190000	861.500000	9553.333333	7.681164
625.690000	861.000000	9486.666667	7.684216
626.190000	860.500000	9756.666667	7.687268
626.690000	860.000000	9536.666667	7.690319
627.190000	859.500000	9500.000000	7.693371
627.690000	859.000000	9426.666667	7.696422
628.190000	858.500000	9733.333333	7.699474
628.690000	858.000000	9500.000000	7.702525
629.190000	857.500000	9383.333333	7.705577
629.690000	857.000000	9680.000000	7.708628
630.190000	856.500000	9736.666667	7.711680
630.690000	856.000000	9643.333333	7.714732
631.190000	855.500000	9663.333333	7.717783
631.690000	855.000000	9536.666667	7.720835
632.190000	854.500000	9600.000000	7.723886
632.690000	854.000000	9696.666667	7.726938
633.190000	853.500000	9473.333333	7.729989
633.690000	853.000000	9530.000000	7.733041
634.190000	852.500000	9623.333333	7.736092
634.690000	852.000000	9643.333333	7.739144
635.190000	851.500000	9550.000000	7.742195
635.690000	851.000000	9410.000000	7.745247
636.190000	850.500000	10000.000000	7.748299
636.690000	850.000000	10136.666667	7.751350
637.190000	849.500000	9703.333333	7.754402
637.690000	849.000000	9740.000000	7.757453
638.190000	848.500000	9583.333333	7.760505
638.690000	848.000000	9623.333333	7.763556
639.190000	847.500000	9613.333333	7.766608
639.690000	847.000000	9810.000000	7.769659
640.190000	846.500000	9713.333333	7.772711
640.690000	846.000000	9780.000000	7.775763
641.190000	845.500000	10056.666667	7.778814
641.690000	845.000000	10043.333333	7.781866
642.190000	844.500000	10103.333333	7.784917
642.690000	844.000000	10053.333333	7.787969
643.190000	843.500000	9970.000000	7.791020
643.690000	843.000000	9906.666667	7.794072
644.190000	842.500000	10003.333333	7.797123
644.690000	842.000000	9983.333333	7.800175
645.190000	841.500000	9540.000000	7.803226
645.690000	841.000000	9886.666667	7.806278
646.190000	840.500000	9940.000000	7.809330
646.690000	840.000000	9973.333333	7.812381
647.190000	839.500000	9886.666667	7.815433
647.690000	839.000000	9956.666667	7.818484
648.190000	838.500000	10213.333333	7.821536
648.690000	838.000000	9946.666667	7.824587
649.190000	837.500000	9846.666667	7.827639
649.690000	837.000000	9920.000000	7.830690
650.190000	836.500000	10076.666667	7.833742
650.690000	836.000000	10266.666667	7.836794
651.190000	835.500000	10016.666667	7.839845
651.690000	835.000000	10036.666667	7.842897
652.190000	834.500000	10230.000000	7.845948
652.690000	834.000000	10233.333333	7.849000
653.190000	833.500000	10243.333333	7.852051
653.690000	833.000000	10256.666667	7.855103
654.190000	832.500000	10586.666667	7.858154
654.690000	832.000000	10436.666667	7.861206
655.190000	831.500000	10766.666667	7.864257
655.690000	831.000000	10833.333333	7.867309
656.190000	830.500000	10823.333333	7.870361
656.690000	830.000000	10873.333333	7.873412
657.190000	829.500000	10966.666667	7.876464
657.690000	829.000000	10896.666667	7.879515
658.190000	828.500000	10873.333333	7.882567
658.690000	828.000000	10756.666667	7.885618
659.190000	827.500000	11163.333333	7.888670
659.690000	827.000000	11126.666667	7.891721
660.190000	826.500000	11176.666667	7.894773
660.690000	826.000000	10870.000000	7.897825
661.190000	825.500000	11106.666667	7.900876
661.690000	825.000000	11186.666667	7.903928
662.190000	824.500000	11020.000000	7.906979
662.690000	824.000000	10780.000000	7.910031
663.190000	823.500000	10916.666667	7.913082
663.690000	823.000000	10436.666667	7.916134
664.190000	822.500000	10310.000000	7.919185
664.690000	822.000000	10293.333333	7.922237
665.190000	821.500000	10100.000000	7.924812
665.690000	821.000000	10193.333333	7.926931
666.190000	820.500000	9886.666667	7.929050
666.690000	820.000000	10230.000000	7.931169
667.190000	819.500000	10520.000000	7.933288
667.690000	819.000000	10406.666667	7.935407
668.190000	818.500000	10276.666667	7.937526
668.690000	818.000000	10246.666667	7.939645
669.190000	817.500000	10256.666667	7.941764
669.690000	817.000000	10220.000000	7.943883
670.190000	816.500000	10186.666667	7.946002
670.690000	816.000000	9940.000000	7.948121
671.190000	815.500000	10126.666667	7.950239
671.690000	815.000000	10526.666667	7.952358
672.190000	814.500000	10213.333333	7.954477
672.690000	814.000000	10370.000000	7.956596
673.190000	813.500000	10300.000000	7.958715
673.690000	813.000000	10040.000000	7.960834
674.190000	812.500000	9950.000000	7.962953
674.690000	812.000000	10076.666667	7.965072
675.190000	811.500000	9820.000000	7.967191
675.690000	811.000000	10070.000000	7.969310
676.190000	810.500000	10250.000000	7.971429
676.690000	810.000000	10240.000000	7.973548
677.190000	809.500000	9913.333333	7.975667
677.690000	809.000000	10236.666667	7.977786
678.190000	808.500000	10146.666667	7.979905
678.690000	808.000000	10233.333333	7.982024
679.190000	807.500000	10120.000000	7.984143
679.690000	807.000000	10106.666667	7.986262
680.190000	806.500000	10130.000000	7.988381
680.690000	806.000000	10260.000000	7.990500
681.190000	805.500000	10383.333333	7.992619
681.690000	805.000000	10246.666667	7.994738
682.190000	804.500000	10146.666667	7.996857
682.690000	804.000000	10393.333333	7.998976
683.190000	803.500000	10236.666667	8.001095
683.690000	803.000000	10356.666667	8.003214
684.190000	802.500000	10446.666667	8.005332
684.690000	802.000000	10353.333333	8.007451
685.190000	801.500000	10536.666667	8.009570
685.690000	801.000000	10523.333333	8.011689
686.190000	800.500000	10163.333333	8.013808
686.690000	800.000000	10350.000000	8.015927
687.190000	799.500000	10346.666667	8.018046
687.690000	799.000000	10236.666667	8.020165
688.190000	798.500000	10253.333333	8.022284
688.690000	798.000000	10266.666667	8.024403
689.190000	797.500000	10300.000000	8.026522
689.690000	797.000000	10270.000000	8.028641
690.190000	796.500000	10450.000000	8.030760
690.690000	796.000000	10360.000000	8.032879
691.190000	795.500000	10183.333333	8.034998
691.690000	795.000000	10560.000000	8.037117
692.190000	794.500000	10190.000000	8.039236
692.690000	794.000000	10510.000000	8.041355
693.190000	793.500000	10246.666667	8.043474
693.690000	793.000000	10543.333333	8.045593
694.190000	792.500000	10410.000000	8.047712
694.690000	792.000000	10280.000000	8.049831
695.190000	791.500000	10510.000000	8.051950
695.690000	791.000000	10450.000000	8.054069
696.190000	790.500000	10346.666667	8.056188
696.690000	790.000000	10423.333333	8.058307
697.190000	789.500000	10660.000000	8.060425
697.690000	789.000000	10476.666667	8.062544
698.190000	788.500000	10626.666667	8.064663
698.690000	788.000000	10780.000000	8.066782
699.190000	787.500000	10646.666667	8.068901
699.690000	787.000000	10900.000000	8.071020
700.190000	786.500000	10880.000000	8.073139
700.690000	786.000000	10753.333333	8.075258
701.190000	785.500000	10533.333333	8.077377
701.690000	785.000000	10663.333333	8.079496
702.190000	784.500000	10603.333333	8.081615
702.690000	784.000000	10810.000000	8.083734
703.190000	783.500000	10530.000000	8.085853
703.690000	783.000000	10766.666667	8.087972
704.190000	782.500000	10816.666667	8.090091
704.690000	782.000000	10943.333333	8.092210
705.190000	781.500000	10750.000000	8.094329
705.690000	781.000000	10623.333333	8.096448
706.190000	780.500000	10676.666667	8.098567
706.690000	780.000000	10786.666667	8.100686
707.190000	779.500000	10880.000000	8.102805
707.690000	779.000000	10923.333333	8.104924
708.190000	778.500000	10913.333333	8.107043
708.690000	778.000000	10770.000000	8.109162
709.190000	777.500000	10896.666667	8.111281
709.690000	777.000000	11006.666667	8.113400
710.190000	776.500000	11060.000000	8.115519
710.690000	776.000000	10863.333333	8.117637
711.190000	775.500000	10683.333333	8.119756
711.690000	775.000000	10730.000000	8.121875
712.190000	774.500000	10966.666667	8.123994
712.690000	774.000000	10796.666667	8.126113
713.190000	773.500000	10950.000000	8.128232
713.690000	773.000000	10936.666667	8.130351
714.190000	772.500000	10816.666667	8.132470
714.690000	772.000000	10983.333333	8.134589
715.190000	771.500000	11036.666667	8.136708
715.690000	771.000000	11210.000000	8.138827
716.190000	770.500000	10970.000000	8.140946
716.690000	770.000000	11013.333333	8.143065
717.190000	769.500000	10996.666667	8.145184
717.690000	769.000000	11116.666667	8.147303
718.190000	768.500000	11273.333333	8.149422
718.690000	768.000000	11163.333333	8.151541
719.190000	767.500000	11013.333333	8.153660
719.690000	767.000000	11286.666667	8.155779
720.190000	766.500000	11556.666667	8.157898
720.690000	766.000000	11230.000000	8.160017
721.190000	765.500000	11230.000000	8.162136
721.690000	765.000000	11126.666667	8.164255
722.190000	764.500000	11433.333333	8.166374
722.690000	764.000000	11420.000000	8.168493
723.190000	763.500000	11330.000000	8.170612
723.690000	763.000000	11263.333333	8.172730
724.190000	762.500000	11083.333333	8.174849
724.690000	762.000000	11436.666667	8.176968
725.190000	761.500000	11373.333333	8.179087
725.690000	761.000000	11700.000000	8.181206
726.190000	760.500000	11736.666667	8.183325
726.690000	760.000000	11596.666667	8.185444
727.190000	759.500000	11766.666667	8.187563
727.690000	759.000000	11816.666667	8.189682
728.190000	758.500000	12120.000000	8.191801
728.690000	758.000000	12233.333333	8.193920
729.190000	757.500000	11850.000000	8.196039
729.690000	757.000000	11936.666667	8.198158
730.190000	756.500000	11830.000000	8.200277
730.690000	756.000000	11770.000000	8.202396
731.190000	755.500000	11936.666667	8.204515
731.690000	755.000000	11506.666667	8.206634
732.190000	754.500000	11390.000000	8.208753
732.690000	754.000000	11543.333333	8.210872
733.190000	753.500000	11446.666667	8.212991
733.690000	753.000000	11706.666667	8.215110
734.190000	752.500000	11566.666667	8.217229
734.690000	752.000000	11513.333333	8.219348
735.190000	751.500000	11863.333333	8.221467
735.690000	751.000000	11626.666667	8.223586
736.190000	750.500000	11513.333333	8.225705
736.690000	750.000000	11663.333333	8.227823
737.190000	749.500000	11523.333333	8.229942
737.690000	749.000000	11820.000000	8.232061
738.190000	748.500000	11660.000000	8.234180
738.690000	748.000000	11903.333333	8.236299
739.190000	747.500000	11426.666667	8.238418
739.690000	747.000000	11760.000000	8.240537
740.190000	746.500000	11826.666667	8.242656
740.690000	746.000000	12130.000000	8.244775
741.190000	745.500000	11730.000000	8.246894
741.690000	745.000000	11723.333333	8.249013
742.190000	744.500000	11710.000000	8.251132
742.690000	744.000000	11873.333333	8.253251
743.190000	743.500000	12150.000000	8.255370
743.690000	743.000000	11960.000000	8.257489
744.190000	742.500000	11826.666667	8.259608
744.690000	742.000000	11876.666667	8.261727
745.190000	741.500000	11976.666667	8.263846
745.690000	741.000000	11776.666667	8.265965
746.190000	740.500000	11956.666667	8.268084
746.690000	740.000000	11980.000000	8.270203
747.190000	739.500000	12170.000000	8.272322
747.690000	739.000000	11906.666667	8.274441
748.190000	738.500000	11923.333333	8.276560
748.690000	738.000000	12146.666667	8.278679
749.190000	737.500000	12246.666667	8.280798
749.690000	737.000000	12153.333333	8.282917
750.190000	736.500000	12080.000000	8.285035
750.690000	736.000000	11886.666667	8.287154
751.190000	735.500000	12060.000000	8.289273
751.690000	735.000000	12196.666667	8.291392
752.190000	734.500000	12086.666667	8.293511
752.690000	734.000000	12110.000000	8.295630
753.190000	733.500000	12203.333333	8.297749
753.690000	733.000000	12170.000000	8.299868
754.190000	732.500000	12086.666667	8.301987
754.690000	732.000000	11856.666667	8.304106
755.190000	731.500000	12000.000000	8.306225
755.690000	731.000000	11963.333333	8.308344
756.190000	730.500000	12276.666667	8.310463
756.690000	730.000000	12453.333333	8.312582
757.190000	729.500000	12213.333333	8.314701
757.690000	729.000000	12126.666667	8.316820
758.190000	728.500000	12293.333333	8.318939
758.690000	728.000000	12370.000000	8.321058
759.190000	727.500000	12336.666667	8.323177
759.690000	727.000000	12446.666667	8.325296
760.190000	726.500000	12916.666667	8.327415
760.690000	726.000000	12536.666667	8.329534
761.190000	725.500000	12416.666667	8.331653
761.690000	725.000000	12520.000000	8.333772
762.190000	724.500000	12610.000000	8.335891
762.690000	724.000000	12770.000000	8.338010
763.190000	723.500000	12856.666667	8.340128
763.690000	723.000000	12723.333333	8.342247
764.190000	722.500000	12780.000000	8.344366
764.690000	722.000000	13080.000000	8.346485
765.190000	721.500000	12663.333333	8.348604
765.690000	721.000000	12556.666667	8.350723
766.190000	720.500000	12693.333333	8.352842
766.690000	720.000000	13156.666667	8.354961
767.190000	719.500000	13126.666667	8.357080
767.690000	719.000000	13240.000000	8.359199
768.190000	718.500000	13470.000000	8.361318
768.690000	718.000000	13400.000000	8.363437
769.190000	717.500000	13786.666667	8.365556
769.690000	717.000000	13490.000000	8.367675
770.190000	716.500000	13883.333333	8.369794
770.690000	716.000000	13956.666667	8.371913
771.190000	715.500000	13666.666667	8.374032
771.690000	715.000000	13526.666667	8.376151
772.190000	714.500000	13243.333333	8.378270
772.690000	714.000000	12810.000000	8.380389
773.190000	713.500000	12860.000000	8.382508
773.690000	713.000000	12606.666667	8.384627
774.190000	712.500000	12673.333333	8.386746
774.690000	712.000000	12686.666667	8.388865
775.190000	711.500000	12486.666667	8.390984
775.690000	711.000000	12443.333333	8.393103
776.190000	710.500000	12696.666667	8.395222
776.690000	710.000000	12406.666667	8.397340
777.190000	709.500000	12793.333333	8.399459
777.690000	709.000000	12796.666667	8.401578
778.190000	708.500000	12860.000000	8.403697
778.690000	708.000000	13120.000000	8.405816
779.190000	707.500000	13670.000000	8.407935
779.690000	707.000000	14130.000000	8.410054
780.190000	706.500000	14710.000000	8.412173
780.690000	706.000000	15503.333333	8.414292
781.190000	705.500000	16196.666667	8.416411
781.690000	705.000000	17443.333333	8.418530
782.190000	704.500000	18096.666667	8.420649
782.690000	704.000000	18253.333333	8.422768
783.190000	703.500000	18523.333333	8.424887
783.690000	703.000000	17746.666667	8.427006
784.190000	702.500000	17216.666667	8.429125
784.690000	702.000000	15686.666667	8.431244
785.190000	701.500000	14723.333333	8.433363
785.690000	701.000000	13863.333333	8.435482
786.190000	700.500000	13403.333333	8.437601
786.690000	700.000000	13136.666667	8.439720
787.190000	699.500000	12956.666667	8.441839
787.690000	699.000000	12846.666667	8.443958
788.190000	698.500000	12816.666667	8.446077
788.690000	698.000000	12430.000000	8.448196
789.190000	697.500000	12400.000000	8.450315
789.690000	697.000000	12416.666667	8.452433
790.190000	696.500000	12246.666667	8.454552
790.690000	696.000000	11986.666667	8.456671
791.190000	695.500000	12326.666667	8.458790
791.690000	695.000000	12336.666667	8.460909
792.190000	694.500000	12126.666667	8.463028
792.690000	694.000000	12350.000000	8.465147
793.190000	693.500000	12470.000000	8.467266
793.690000	693.000000	12336.666667	8.469385
794.190000	692.500000	12163.333333	8.471504
794.690000	692.000000	12180.000000	8.473623
795.190000	691.500000	12383.333333	8.475742
795.690000	691.000000	12403.333333	8.477861
796.190000	690.500000	12303.333333	8.479980
796.690000	690.000000	12610.000000	8.482099
797.190000	689.500000	12280.000000	8.484218
797.690000	689.000000	12263.333333	8.486337
798.190000	688.500000	12213.333333	8.488456
798.690000	688.000000	12356.666667	8.490575
799.190000	687.500000	12036.666667	8.492694
799.690000	687.000000	12243.333333	8.494813
800.190000	686.500000	12593.333333	8.496932
800.690000	686.000000	12880.000000	8.499051
801.190000	685.500000	12763.333333	8.501170
801.690000	685.000000	12770.000000	8.503289
802.190000	684.500000	12883.333333	8.505408
802.690000	684.000000	12930.000000	8.507526
803.190000	683.500000	12690.000000	8.509645
803.690000	683.000000	12726.666667	8.511764
804.190000	682.500000	12813.333333	8.513883
804.690000	682.000000	12590.000000	8.516002
805.190000	681.500000	12300.000000	8.518121
805.690000	681.000000	12260.000000	8.520240
806.190000	680.500000	12213.333333	8.522359
806.690000	680.000000	12336.666667	8.524478
807.190000	679.500000	12253.333333	8.526597
807.690000	679.000000	12206.666667	8.528716
808.190000	678.500000	12366.666667	8.530835
808.690000	678.000000	12330.000000	8.532954
809.190000	677.500000	12123.333333	8.535073
809.690000	677.000000	12306.666667	8.537192
810.190000	676.500000	11986.666667	8.539311
810.690000	676.000000	12193.333333	8.541430
811.190000	675.500000	12456.666667	8.543549
811.690000	675.000000	11970.000000	8.545668
812.190000	674.500000	11846.666667	8.547787
812.690000	674.000000	12193.333333	8.549906
813.190000	673.500000	11880.000000	8.552025
813.690000	673.000000	12130.000000	8.554144
814.190000	672.500000	12140.000000	8.556263
814.690000	672.000000	12176.666667	8.558382
815.190000	671.500000	12886.666667	8.560501
815.690000	671.000000	12880.000000	8.562620
816.190000	670.500000	13320.000000	8.564738
816.690000	670.000000	13576.666667	8.566857
817.190000	669.500000	14553.333333	8.568976
817.690000	669.000000	15456.666667	8.571095
818.190000	668.500000	16843.333333	8.573214
818.690000	668.000000	18610.000000	8.575333
819.190000	667.500000	20726.666667	8.577452
819.690000	667.000000	22803.333333	8.579571
820.190000	666.500000	24190.000000	8.581690
820.690000	666.000000	24503.333333	8.583809
821.190000	665.500000	24623.333333	8.585928
821.690000	665.000000	22806.666667	8.588047
822.190000	664.500000	20590.000000	8.590166
822.690000	664.000000	18210.000000	8.592285
823.190000	663.500000	16353.333333	8.594404
823.690000	663.000000	14946.666667	8.596523
824.190000	662.500000	13753.333333	8.598642
824.690000	662.000000	12916.666667	8.600761
825.190000	661.500000	12750.000000	8.602880
825.690000	661.000000	11936.666667	8.604999
826.190000	660.500000	11530.000000	8.607118
826.690000	660.000000	11506.666667	8.609237
827.190000	659.500000	11336.666667	8.611356
827.690000	659.000000	11120.000000	8.613475
828.190000	658.500000	10993.333333	8.615594
828.690000	658.000000	10950.000000	8.617713
829.190000	657.500000	10606.666667	8.619831
829.690000	657.000000	10746.666667	8.621950
830.190000	656.500000	10553.333333	8.624069
830.690000	656.000000	10483.333333	8.626188
831.190000	655.500000	10583.333333	8.628307
831.690000	655.000000	10470.000000	8.630426
832.190000	654.500000	10406.666667	8.632545
832.690000	654.000000	10600.000000	8.634664
833.190000	653.500000	10573.333333	8.636783
833.690000	653.000000	10333.333333	8.638902
834.190000	652.500000	10276.666667	8.641021
834.690000	652.000000	10220.000000	8.643140
835.190000	651.500000	10656.666667	8.645259
835.690000	651.000000	10570.000000	8.647378
836.190000	650.500000	10713.333333	8.649497
836.690000	650.000000	10556.666667	8.651616
837.190000	649.500000	10386.666667	8.653735
837.690000	649.000000	10453.333333	8.655854
838.190000	648.500000	10483.333333	8.657973
838.690000	648.000000	10826.666667	8.660092
839.190000	647.500000	10580.000000	8.662211
839.690000	647.000000	10676.666667	8.664330
840.190000	646.500000	10666.666667	8.666449
840.690000	646.000000	10433.333333	8.668568
841.190000	645.500000	10693.333333	8.670687
841.690000	645.000000	10683.333333	8.672806
842.190000	644.500000	10243.333333	8.674925
842.690000	644.000000	10570.000000	8.677043
843.190000	643.500000	10650.000000	8.679162
843.690000	643.000000	10670.000000	8.681281
844.190000	642.500000	10683.333333	8.683400
844.690000	642.000000	10513.333333	8.685519
845.190000	641.500000	10620.000000	8.687638
845.690000	641.000000	10643.333333	8.689757
846.190000	640.500000	10703.333333	8.691876
846.690000	640.000000	10570.000000	8.693995
847.190000	639.500000	10543.333333	8.696114
847.690000	639.000000	10600.000000	8.698233
848.190000	638.500000	10530.000000	8.700352
848.690000	638.000000	10650.000000	8.702471
849.190000	637.500000	10723.333333	8.704590
849.690000	637.000000	10883.333333	8.706709
850.190000	636.500000	10820.000000	8.708828
850.690000	636.000000	10810.000000	8.710947
851.190000	635.500000	10786.666667	8.713066
851.690000	635.000000	10646.666667	8.715185
852.190000	634.500000	10640.000000	8.717304
852.690000	634.000000	10820.000000	8.719423
853.190000	633.500000	10416.666667	8.721542
853.690000	633.000000	10473.333333	8.723661
854.190000	632.500000	10703.333333	8.725780
854.690000	632.000000	10913.333333	8.727899
855.190000	631.500000	10833.333333	8.730018
855.690000	631.000000	10766.666667	8.732136
856.190000	630.500000	10823.333333	8.734255
856.690000	630.000000	10690.000000	8.736374
857.190000	629.500000	10916.666667	8.738493
857.690000	629.000000	10670.000000	8.740612
858.190000	628.500000	10670.000000	8.742731
858.690000	628.000000	10760.000000	8.744850
859.190000	627.500000	11030.000000	8.746969
859.690000	627.000000	11023.333333	8.749088
860.190000	626.500000	10996.666667	8.751207
860.690000	626.000000	10983.333333	8.753326
861.190000	625.500000	10966.666667	8.755445
861.690000	625.000000	11030.000000	8.757564
862.190000	624.500000	10746.666667	8.759683
862.690000	624.000000	10963.333333	8.761802
863.190000	623.500000	10893.333333	8.763921
863.690000	623.000000	11183.333333	8.766040
864.190000	622.500000	10826.666667	8.768159
864.690000	622.000000	10730.000000	8.770278
865.190000	621.500000	10863.333333	8.772397
865.690000	621.000000	10890.000000	8.774516
866.190000	620.500000	11160.000000	8.776635
866.690000	620.000000	11180.000000	8.778754
867.190000	619.500000	11223.333333	8.780873
867.690000	619.000000	11066.666667	8.782992
868.190000	618.500000	10986.666667	8.785111
868.690000	618.000000	11136.666667	8.787229
869.190000	617.500000	11180.000000	8.789348
869.690000	617.000000	11226.666667	8.791467
870.190000	616.500000	10993.333333	8.793586
870.690000	616.000000	11053.333333	8.795705
871.190000	615.500000	11223.333333	8.797824
871.690000	615.000000	11403.333333	8.799943
872.190000	614.500000	11263.333333	8.802062
872.690000	614.000000	11103.333333	8.804181
873.190000	613.500000	10880.000000	8.806300
873.690000	613.000000	11483.333333	8.808419
874.190000	612.500000	11400.000000	8.810538
874.690000	612.000000	11123.333333	8.812657
875.190000	611.500000	11373.333333	8.814776
875.690000	611.000000	11130.000000	8.816895
876.190000	610.500000	10956.666667	8.819014
876.690000	610.000000	11343.333333	8.821133
877.190000	609.500000	11496.666667	8.823252
877.690000	609.000000	11186.666667	8.825371
878.190000	608.500000	11446.666667	8.827490
878.690000	608.000000	11100.000000	8.829609
879.190000	607.500000	11080.000000	8.831728
879.690000	607.000000	11163.333333	8.833847
880.190000	606.500000	11376.666667	8.835966
880.690000	606.000000	11333.333333	8.838085
881.190000	605.500000	11613.333333	8.840204
881.690000	605.000000	11303.333333	8.842323
882.190000	604.500000	11343.333333	8.844441
882.690000	604.000000	11463.333333	8.846560
883.190000	603.500000	11833.333333	8.848679
883.690000	603.000000	11356.666667	8.850798
884.190000	602.500000	11420.000000	8.852917
884.690000	602.000000	11690.000000	8.855036
885.190000	601.500000	11150.000000	8.857155
885.690000	601.000000	11440.000000	8.859274
886.190000	600.500000	11780.000000	8.861393
886.690000	600.000000	11796.666667	8.863512
887.190000	599.500000	11590.000000	8.864888
887.690000	599.000000	11793.333333	8.866119
888.190000	598.500000	11753.333333	8.867351
888.690000	598.000000	11836.666667	8.868583
889.190000	597.500000	11773.333333	8.869815
889.690000	597.000000	11850.000000	8.871047
890.190000	596.500000	11706.666667	8.872278
890.690000	596.000000	11470.000000	8.873510
891.190000	595.500000	11750.000000	8.874742
891.690000	595.000000	11676.666667	8.875974
892.190000	594.500000	11536.666667	8.877205
892.690000	594.000000	11790.000000	8.878437
893.190000	593.500000	12100.000000	8.879669
893.690000	593.000000	11923.333333	8.880901
894.190000	592.500000	11690.000000	8.882133
894.690000	592.000000	11880.000000	8.883364
895.190000	591.500000	11760.000000	8.884596
895.690000	591.000000	11750.000000	8.885828
896.190000	590.500000	11780.000000	8.887060
896.690000	590.000000	11700.000000	8.888291
897.190000	589.500000	11746.666667	8.889523
897.690000	589.000000	11906.666667	8.890755
898.190000	588.500000	11783.333333	8.891987
898.690000	588.000000	11756.666667	8.893219
899.190000	587.500000	11993.333333	8.894450
899.690000	587.000000	11766.666667	8.895682
900.190000	586.500000	11993.333333	8.896914
900.690000	586.000000	12000.000000	8.898146
901.190000	585.500000	11926.666667	8.899377
901.690000	585.000000	11843.333333	8.900609
902.190000	584.500000	12080.000000	8.901841
902.690000	584.000000	11960.000000	8.903073
903.190000	583.500000	11990.000000	8.904305
903.690000	583.000000	12400.000000	8.905536
904.190000	582.500000	12420.000000	8.906768
904.690000	582.000000	12276.666667	8.908000
905.190000	581.500000	12020.000000	8.909232
905.690000	581.000000	12020.000000	8.910464
906.190000	580.500000	12063.333333	8.911695
906.690000	580.000000	12506.666667	8.912927
907.190000	579.500000	12533.333333	8.914159
907.690000	579.000000	12486.666667	8.915391
908.190000	578.500000	12446.666667	8.916622
908.690000	578.000000	12396.666667	8.917854
909.190000	577.500000	12400.000000	8.919086
909.690000	577.000000	12106.666667	8.920318
910.190000	576.500000	12223.333333	8.921550
910.690000	576.000000	12240.000000	8.922781
911.190000	575.500000	12366.666667	8.924013
911.690000	575.000000	12433.333333	8.925245
912.190000	574.500000	12326.666667	8.926477
912.690000	574.000000	12590.000000	8.927708
913.190000	573.500000	12393.333333	8.928940
913.690000	573.000000	12496.666667	8.930172
914.190000	572.500000	12373.333333	8.931404
914.690000	572.000000	12610.000000	8.932636
915.190000	571.500000	12720.000000	8.933867
915.690000	571.000000	12663.333333	8.935099
916.190000	570.500000	12790.000000	8.936331
916.690000	570.000000	12940.000000	8.937563
917.190000	569.500000	12703.333333	8.938794
917.690000	569.000000	12643.333333	8.940026
918.190000	568.500000	12380.000000	8.941258
918.690000	568.000000	12416.666667	8.942490
919.190000	567.500000	12670.000000	8.943722
919.690000	567.000000	12643.333333	8.944953
920.190000	566.500000	12560.000000	8.946185
920.690000	566.000000	12400.000000	8.947417
921.190000	565.500000	12803.333333	8.948649
921.690000	565.000000	12693.333333	8.949880
922.190000	564.500000	12643.333333	8.951112
922.690000	564.000000	12596.666667	8.952344
923.190000	563.500000	12623.333333	8.953576
923.690000	563.000000	12656.666667	8.954808
924.190000	562.500000	12606.666667	8.956039
924.690000	562.000000	12813.333333	8.957271
925.190000	561.500000	12720.000000	8.958503
925.690000	561.000000	12753.333333	8.959735
926.190000	560.500000	12793.333333	8.960967
926.690000	560.000000	13033.333333	8.962198
927.190000	559.500000	13146.666667	8.963430
927.690000	559.000000	12870.000000	8.964662
928.190000	558.500000	13040.000000	8.965894
928.690000	558.000000	12870.000000	8.967125
929.190000	557.500000	13233.333333	8.968357
929.690000	557.000000	13203.333333	8.969589
930.190000	556.500000	13090.000000	8.970821
930.690000	556.000000	13180.000000	8.972053
931.190000	555.500000	13136.666667	8.973284
931.690000	555.000000	13026.666667	8.974516
932.190000	554.500000	13290.000000	8.975748
932.690000	554.000000	13463.333333	8.976980
933.190000	553.500000	13436.666667	8.978211
933.690000	553.000000	13456.666667	8.979443
934.190000	552.500000	13656.666667	8.980675
934.690000	552.000000	13510.000000	8.981907
935.190000	551.500000	13353.333333	8.983139
935.690000	551.000000	13256.666667	8.984370
936.190000	550.500000	13300.000000	8.985602
936.690000	550.000000	14040.000000	8.986834
937.190000	549.500000	13923.333333	8.988066
937.690000	549.000000	13956.666667	8.989297
938.190000	548.500000	13813.333333	8.990529
938.690000	548.000000	13806.666667	8.991761
939.190000	547.500000	13653.333333	8.992993
939.690000	547.000000	13843.333333	8.994225
940.190000	546.500000	13706.666667	8.995456
940.690000	546.000000	13853.333333	8.996688
941.190000	545.500000	13636.666667	8.997920
941.690000	545.000000	13146.666667	8.999152
942.190000	544.500000	13410.000000	9.000383
942.690000	544.000000	13346.666667	9.001615
943.190000	543.500000	12850.000000	9.002847
943.690000	543.000000	13023.333333	9.004079
944.190000	542.500000	13133.333333	9.005311
944.690000	542.000000	12963.333333	9.006542
945.190000	541.500000	12590.000000	9.007774
945.690000	541.000000	12850.000000	9.009006
946.190000	540.500000	12800.000000	9.010238
946.690000	540.000000	12656.666667	9.011470
947.190000	539.500000	12396.666667	9.012701
947.690000	539.000000	12476.666667	9.013933
948.190000	538.500000	12520.000000	9.015165
948.690000	538.000000	12896.666667	9.016397
949.190000	537.500000	12603.333333	9.017628
949.690000	537.000000	12450.000000	9.018860
950.190000	536.500000	12433.333333	9.020092
950.690000	536.000000	12773.333333	9.021324
951.190000	535.500000	12910.000000	9.022556
951.690000	535.000000	12570.000000	9.023787
952.190000	534.500000	12593.333333	9.025019
952.690000	534.000000	13030.000000	9.026251
953.190000	533.500000	13940.000000	9.027483
953.690000	533.000000	15473.333333	9.028714
954.190000	532.500000	16993.333333	9.029946
954.690000	532.000000	19576.666667	9.031178
955.190000	531.500000	22910.000000	9.032410
955.690000	531.000000	26476.666667	9.033642
956.190000	530.500000	28243.333333	9.034873
956.690000	530.000000	26966.666667	9.036105
957.190000	529.500000	23576.666667	9.037337
957.690000	529.000000	18426.666667	9.038569
958.190000	528.500000	15346.666667	9.039800
958.690000	528.000000	13206.666667	9.041032
959.190000	527.500000	12713.333333	9.042264
959.690000	527.000000	12356.666667	9.043496
960.190000	526.500000	12406.666667	9.044728
960.690000	526.000000	11983.333333	9.045959
961.190000	525.500000	11973.333333	9.047191
961.690000	525.000000	12283.333333	9.048423
962.190000	524.500000	12323.333333	9.049655
962.690000	524.000000	12066.666667	9.050886
963.190000	523.500000	11910.000000	9.052118
963.690000	523.000000	11996.666667	9.053350
964.190000	522.500000	12336.666667	9.054582
964.690000	522.000000	12196.666667	9.055814
965.190000	521.500000	12196.666667	9.057045
965.690000	521.000000	12213.333333	9.058277
966.190000	520.500000	12143.333333	9.059509
966.690000	520.000000	11906.666667	9.060741
967.190000	519.500000	12233.333333	9.061973
967.690000	519.000000	12486.666667	9.063204
968.190000	518.500000	12156.666667	9.064436
968.690000	518.000000	12173.333333	9.065668
969.190000	517.500000	12060.000000	9.066900
969.690000	517.000000	12183.333333	9.068131
970.190000	516.500000	12383.333333	9.069363
970.690000	516.000000	12263.333333	9.070595
971.190000	515.500000	12446.666667	9.071827
971.690000	515.000000	12400.000000	9.073059
972.190000	514.500000	12456.666667	9.074290
972.690000	514.000000	12810.000000	9.075522
973.190000	513.500000	12750.000000	9.076754
973.690000	513.000000	12623.333333	9.077986
974.190000	512.500000	12650.000000	9.079217
974.690000	512.000000	12540.000000	9.080449
975.190000	511.500000	12420.000000	9.081681
975.690000	511.000000	12453.333333	9.082913
976.190000	510.500000	13006.666667	9.084145
976.690000	510.000000	12593.333333	9.085376
977.190000	509.500000	12513.333333	9.086608
977.690000	509.000000	12896.666667	9.087840
978.190000	508.500000	12960.000000	9.089072
978.690000	508.000000	12976.666667	9.090303
979.190000	507.500000	12900.000000	9.091535
979.690000	507.000000	12736.666667	9.092767
980.190000	506.500000	12676.666667	9.093999
980.690000	506.000000	12706.666667	9.095231
981.190000	505.500000	12696.666667	9.096462
981.690000	505.000000	12883.333333	9.097694
982.190000	504.500000	13063.333333	9.098926
982.690000	504.000000	12723.333333	9.100158
983.190000	503.500000	12820.000000	9.101389
983.690000	503.000000	13040.000000	9.102621
984.190000	502.500000	13140.000000	9.103853
984.690000	502.000000	12813.333333	9.105085
985.190000	501.500000	13006.666667	9.106317
985.690000	501.000000	12780.000000	9.107548
986.190000	500.500000	13000.000000	9.108780
986.690000	500.000000	12953.333333	9.110012
987.190000	499.500000	13070.000000	9.111244
987.690000	499.000000	12890.000000	9.112476
988.190000	498.500000	12586.666667	9.113707
988.690000	498.000000	13220.000000	9.114939
989.190000	497.500000	13433.333333	9.116171
989.690000	497.000000	14283.333333	9.117403
990.190000	496.500000	15433.333333	9.118634
990.690000	496.000000	16666.666667	9.119866
991.190000	495.500000	17563.333333	9.121098
991.690000	495.000000	17443.333333	9.122330
992.190000	494.500000	16440.000000	9.123562
992.690000	494.000000	15306.666667	9.124793
993.190000	493.500000	13803.333333	9.126025
993.690000	493.000000	12926.666667	9.127257
994.190000	492.500000	12810.000000	9.128489
994.690000	492.000000	12743.333333	9.129720
995.190000	491.500000	12646.666667	9.130952
995.690000	491.000000	12550.000000	9.132184
996.190000	490.500000	12630.000000	9.133416
996.690000	490.000000	12930.000000	9.134648
997.190000	489.500000	13123.333333	9.135879
997.690000	489.000000	13850.000000	9.137111
998.190000	488.500000	14933.333333	9.138343
998.690000	488.000000	16376.666667	9.139575
999.190000	487.500000	18330.000000	9.140806
999.690000	487.000000	19663.333333	9.142038
1000.190000	486.500000	19496.666667	9.143270
1000.690000	486.000000	18083.333333	9.144502
1001.190000	485.500000	15753.333333	9.145734
1001.690000	485.000000	14106.666667	9.146965
1002.190000	484.500000	12976.666667	9.148197
1002.690000	484.000000	12813.333333	9.149429
1003.190000	483.500000	12716.666667	9.150661
1003.690000	483.000000	12650.000000	9.151892
1004.190000	482.500000	12726.666667	9.153124
1004.690000	482.000000	12760.000000	9.154356
1005.190000	481.500000	12580.000000	9.155588
1005.690000	481.000000	12646.666667	9.156820
1006.190000	480.500000	12630.000000	9.158051
1006.690000	480.000000	12740.000000	9.159283
1007.190000	479.500000	12843.333333	9.160515
1007.690000	479.000000	12763.333333	9.161747
1008.190000	478.500000	12430.000000	9.162979
1008.690000	478.000000	12240.000000	9.164210
1009.190000	477.500000	12906.666667	9.165442
1009.690000	477.000000	12893.333333	9.166674
1010.190000	476.500000	13106.666667	9.167906
1010.690000	476.000000	13283.333333	9.169137
1011.190000	475.500000	13063.333333	9.170369
1011.690000	475.000000	12850.000000	9.171601
1012.190000	474.500000	13296.666667	9.172833
1012.690000	474.000000	13613.333333	9.174065
1013.190000	473.500000	13560.000000	9.175296
1013.690000	473.000000	13420.000000	9.176528
1014.190000	472.500000	13886.666667	9.177760
1014.690000	472.000000	14153.333333	9.178992
1015.190000	471.500000	14160.000000	9.180223
1015.690000	471.000000	13953.333333	9.181455
1016.190000	470.500000	13813.333333	9.182687
1016.690000	470.000000	13856.666667	9.183919
1017.190000	469.500000	13993.333333	9.185151
1017.690000	469.000000	14146.666667	9.186382
1018.190000	468.500000	14166.666667	9.187614
1018.690000	468.000000	14130.000000	9.188846
1019.190000	467.500000	14056.666667	9.190078
1019.690000	467.000000	14153.333333	9.191309
1020.190000	466.500000	13826.666667	9.192541
1020.690000	466.000000	13443.333333	9.193773
1021.190000	465.500000	13833.333333	9.195005
1021.690000	465.000000	13963.333333	9.196237
1022.190000	464.500000	13836.666667	9.197468
1022.690000	464.000000	13870.000000	9.198700
1023.190000	463.500000	13653.333333	9.199932
1023.690000	463.000000	13680.000000	9.201164
1024.190000	462.500000	13390.000000	9.202395
1024.690000	462.000000	13476.666667	9.203627
1025.190000	461.500000	13150.000000	9.204859
1025.690000	461.000000	12596.666667	9.206091
1026.190000	460.500000	12220.000000	9.207323
1026.690000	460.000000	12426.666667	9.208554
1027.190000	459.500000	12226.666667	9.209786
1027.690000	459.000000	11456.666667	9.211018
1028.190000	458.500000	11256.666667	9.212250
1028.690000	458.000000	11290.000000	9.213482
1029.190000	457.500000	11286.666667	9.214713
1029.690000	457.000000	11123.333333	9.215945
1030.190000	456.500000	10963.333333	9.217177
1030.690000	456.000000	11640.000000	9.218409
1031.190000	455.500000	12200.000000	9.219640
1031.690000	455.000000	13860.000000	9.220872
1032.190000	454.500000	17306.666667	9.222104
1032.690000	454.000000	23916.666667	9.223336
1033.190000	453.500000	34570.000000	9.224568
1033.690000	453.000000	48323.333333	9.225799
1034.190000	452.500000	56993.333333	9.227031
1034.690000	452.000000	55453.333333	9.228263
1035.190000	451.500000	45213.333333	9.229671
1035.690000	451.000000	30136.666667	9.231356
1036.190000	450.500000	16786.666667	9.233041
1036.690000	450.000000	10423.333333	9.234726
1037.190000	449.500000	8930.000000	9.236411
1037.690000	449.000000	8303.333333	9.238096
1038.190000	448.500000	8700.000000	9.239781
1038.690000	448.000000	9446.666667	9.241466
1039.190000	447.500000	12070.000000	9.243151
1039.690000	447.000000	16896.666667	9.244836
1040.190000	446.500000	26170.000000	9.246521
1040.690000	446.000000	41756.666667	9.248206
1041.190000	445.500000	61146.666667	9.249891
1041.690000	445.000000	75390.000000	9.251576
1042.190000	444.500000	75176.666667	9.253261
1042.690000	444.000000	61136.666667	9.254946
1043.190000	443.500000	39696.666667	9.256631
1043.690000	443.000000	19380.000000	9.258316
1044.190000	442.500000	9563.333333	9.260001
1044.690000	442.000000	6403.333333	9.261686
1045.190000	441.500000	5070.000000	9.263371
1045.690000	441.000000	4500.000000	9.265056
1046.190000	440.500000	3930.000000	9.266741
1046.690000	440.000000	3590.000000	9.268426
1047.190000	439.500000	3320.000000	9.270111
1047.690000	439.000000	3103.333333	9.271796
1048.190000	438.500000	2940.000000	9.273481
1048.690000	438.000000	2666.666667	9.275166
1049.190000	437.500000	2600.000000	9.276851
1049.690000	437.000000	2503.333333	9.278536
1050.190000	436.500000	2423.333333	9.280221
1050.690000	436.000000	2470.000000	9.281906
1051.190000	435.500000	2456.666667	9.283591
1051.690000	435.000000	2280.000000	9.285276
1052.190000	434.500000	2166.666667	9.286961
1052.690000	434.000000	2230.000000	9.288646
1053.190000	433.500000	2276.666667	9.290331
1053.690000	433.000000	2183.333333	9.292016
1054.190000	432.500000	2136.666667	9.293701
1054.690000	432.000000	2176.666667	9.295386
1055.190000	431.500000	2166.666667	9.297071
1055.690000	431.000000	2196.666667	9.298756
1056.190000	430.500000	2376.666667	9.300441
1056.690000	430.000000	2210.000000	9.302126
1057.190000	429.500000	2216.666667	9.303811
1057.690000	429.000000	2213.333333	9.305496
1058.190000	428.500000	2090.000000	9.307181
1058.690000	428.000000	2350.000000	9.308866
1059.190000	427.500000	2126.666667	9.310551
1059.690000	427.000000	2290.000000	9.312237
1060.190000	426.500000	2200.000000	9.313922
1060.690000	426.000000	2056.666667	9.315607
1061.190000	425.500000	2096.666667	9.317292
1061.690000	425.000000	2153.333333	9.318977
1062.190000	424.500000	2293.333333	9.320662
1062.690000	424.000000	2153.333333	9.322347
1063.190000	423.500000	2263.333333	9.324032
1063.690000	423.000000	2140.000000	9.325717
1064.190000	422.500000	2050.000000	9.327402
1064.690000	422.000000	2203.333333	9.329087
1065.190000	421.500000	2266.666667	9.330772
1065.690000	421.000000	2133.333333	9.332457
1066.190000	420.500000	2243.333333	9.334142
1066.690000	420.000000	2123.333333	9.335827
1067.190000	419.500000	2306.666667	9.337512
1067.690000	419.000000	2323.333333	9.339197
1068.190000	418.500000	2313.333333	9.340882
1068.690000	418.000000	2220.000000	9.342567
1069.190000	417.500000	2126.666667	9.344252
1069.690000	417.000000	2223.333333	9.345937
1070.190000	416.500000	2230.000000	9.347622
1070.690000	416.000000	2076.666667	9.349307
1071.190000	415.500000	2266.666667	9.350992
1071.690000	415.000000	2246.666667	9.352677
1072.190000	414.500000	2163.333333	9.354362
1072.690000	414.000000	2270.000000	9.356047
1073.190000	413.500000	2110.000000	9.357732
1073.690000	413.000000	2230.000000	9.359417
1074.190000	412.500000	2180.000000	9.361102
1074.690000	412.000000	2283.333333	9.362787
1075.190000	411.500000	2250.000000	9.364472
1075.690000	411.000000	2106.666667	9.366157
1076.190000	410.500000	2246.666667	9.367842
1076.690000	410.000000	2320.000000	9.369527
1077.190000	409.500000	2323.333333	9.371212
1077.690000	409.000000	2166.666667	9.372897
1078.190000	408.500000	2220.000000	9.374582
1078.690000	408.000000	2326.666667	9.376267
1079.190000	407.500000	2336.666667	9.377952
1079.690000	407.000000	2313.333333	9.379637
1080.190000	406.500000	2210.000000	9.381322
1080.690000	406.000000	2286.666667	9.383007
1081.190000	405.500000	2203.333333	9.384692
1081.690000	405.000000	2163.333333	9.386377
1082.190000	404.500000	2220.000000	9.388062
1082.690000	404.000000	2273.333333	9.389747
1083.190000	403.500000	2153.333333	9.391432
1083.690000	403.000000	2286.666667	9.393117
1084.190000	402.500000	2356.666667	9.394802
1084.690000	402.000000	2193.333333	9.396487
1085.190000	401.500000	2296.666667	9.398172
1085.690000	401.000000	2253.333333	9.399857
1086.190000	400.500000	2253.333333	9.401542
1086.690000	400.000000	2320.000000	9.403227
1087.190000	399.500000	2380.000000	9.404912
1087.690000	399.000000	2410.000000	9.406597
1088.190000	398.500000	2376.666667	9.408282
1088.690000	398.000000	2333.333333	9.409967
1089.190000	397.500000	2276.666667	9.411652
1089.690000	397.000000	2406.666667	9.413337
1090.190000	396.500000	2316.666667	9.415022
1090.690000	396.000000	2286.666667	9.416707
1091.190000	395.500000	2233.333333	9.418392
1091.690000	395.000000	2186.666667	9.420077
1092.190000	394.500000	2276.666667	9.421762
1092.690000	394.000000	2210.000000	9.423447
1093.190000	393.500000	2350.000000	9.425132
1093.690000	393.000000	2176.666667	9.426817
1094.190000	392.500000	2233.333333	9.428502
1094.690000	392.000000	2130.000000	9.430187
1095.190000	391.500000	2290.000000	9.431872
1095.690000	391.000000	2416.666667	9.433557
1096.190000	390.500000	2356.666667	9.435242
1096.690000	390.000000	2196.666667	9.436927
1097.190000	389.500000	2193.333333	9.438612
1097.690000	389.000000	2376.666667	9.440297
1098.190000	388.500000	2330.000000	9.441982
1098.690000	388.000000	2306.666667	9.443667
1099.190000	387.500000	2350.000000	9.445352
1099.690000	387.000000	2273.333333	9.447037
1100.190000	386.500000	2183.333333	9.448722
1100.690000	386.000000	2286.666667	9.450407
1101.190000	385.500000	2340.000000	9.452092
1101.690000	385.000000	2260.000000	9.453777
1102.190000	384.500000	2353.333333	9.455462
1102.690000	384.000000	2290.000000	9.457147
1103.190000	383.500000	2356.666667	9.458832
1103.690000	383.000000	2390.000000	9.460517
1104.190000	382.500000	2306.666667	9.462202
1104.690000	382.000000	2416.666667	9.463887
1105.190000	381.500000	2336.666667	9.465572
1105.690000	381.000000	2323.333333	9.467257
1106.190000	380.500000	2303.333333	9.468942
1106.690000	380.000000	2170.000000	9.470627
1107.190000	379.500000	2233.333333	9.472312
1107.690000	379.000000	2323.333333	9.473997
1108.190000	378.500000	2456.666667	9.475682
1108.690000	378.000000	2206.666667	9.477367
1109.190000	377.500000	2303.333333	9.479052
1109.690000	377.000000	2410.000000	9.480737
1110.190000	376.500000	2456.666667	9.482422
1110.690000	376.000000	2366.666667	9.484107
1111.190000	375.500000	2406.666667	9.485792
1111.690000	375.000000	2396.666667	9.487477
1112.190000	374.500000	2343.333333	9.489162
1112.690000	374.000000	2316.666667	9.490847
1113.190000	373.500000	2480.000000	9.492532
1113.690000	373.000000	2516.666667	9.494217
1114.190000	372.500000	2263.333333	9.495902
1114.690000	372.000000	2546.666667	9.497587
1115.190000	371.500000	2440.000000	9.499272
1115.690000	371.000000	2430.000000	9.500957
1116.190000	370.500000	2366.666667	9.502642
1116.690000	370.000000	2350.000000	9.504327
1117.190000	369.500000	2490.000000	9.506012
1117.690000	369.000000	2506.666667	9.507697
1118.190000	368.500000	2366.666667	9.509382
1118.690000	368.000000	2363.333333	9.511067
1119.190000	367.500000	2250.000000	9.512752
1119.690000	367.000000	2506.666667	9.514437
1120.190000	366.500000	2453.333333	9.516122
1120.690000	366.000000	2340.000000	9.517807
1121.190000	365.500000	2506.666667	9.519492
1121.690000	365.000000	2450.000000	9.521177
1122.190000	364.500000	2426.666667	9.522862
1122.690000	364.000000	2503.333333	9.524547
1123.190000	363.500000	2493.333333	9.526232
1123.690000	363.000000	2450.000000	9.527917
1124.190000	362.500000	2413.333333	9.529602
1124.690000	362.000000	2393.333333	9.531287
1125.190000	361.500000	2520.000000	9.532972
1125.690000	361.000000	2510.000000	9.534657
1126.190000	360.500000	2483.333333	9.536342
1126.690000	360.000000	2623.333333	9.538027
1127.190000	359.500000	2303.333333	9.539712
1127.690000	359.000000	2416.666667	9.541397
1128.190000	358.500000	2470.000000	9.543082
1128.690000	358.000000	2440.000000	9.544767
1129.190000	357.500000	2446.666667	9.546452
1129.690000	357.000000	2523.333333	9.548137
1130.190000	356.500000	2346.666667	9.549822
1130.690000	356.000000	2536.666667	9.551507
1131.190000	355.500000	2393.333333	9.553192
1131.690000	355.000000	2470.000000	9.554877
1132.190000	354.500000	2423.333333	9.556562
1132.690000	354.000000	2413.333333	9.558247
1133.190000	353.500000	2483.333333	9.559932
1133.690000	353.000000	2430.000000	9.561617
1134.190000	352.500000	2426.666667	9.563302
1134.690000	352.000000	2583.333333	9.564987
1135.190000	351.500000	2616.666667	9.566672
1135.690000	351.000000	2616.666667	9.568357
1136.190000	350.500000	2500.000000	9.570042
1136.690000	350.000000	2486.666667	9.571727
1137.190000	349.500000	2666.666667	9.573412
1137.690000	349.000000	2510.000000	9.575097
1138.190000	348.500000	2496.666667	9.576782
1138.690000	348.000000	2626.666667	9.578467
1139.190000	347.500000	2703.333333	9.580152
1139.690000	347.000000	2600.000000	9.581837
1140.190000	346.500000	2563.333333	9.583522
1140.690000	346.000000	2516.666667	9.585207
1141.190000	345.500000	2590.000000	9.586892
1141.690000	345.000000	2503.333333	9.588577
1142.190000	344.500000	2656.666667	9.590262
1142.690000	344.000000	2563.333333	9.591947
1143.190000	343.500000	2553.333333	9.593632
1143.690000	343.000000	2413.333333	9.595317
1144.190000	342.500000	2583.333333	9.597002
1144.690000	342.000000	2616.666667	9.598687
1145.190000	341.500000	2516.666667	9.600372
1145.690000	341.000000	2580.000000	9.602057
1146.190000	340.500000	2600.000000	9.603742
1146.690000	340.000000	2610.000000	9.605427
1147.190000	339.500000	2563.333333	9.607112
1147.690000	339.000000	2503.333333	9.608797
1148.190000	338.500000	2536.666667	9.610482
1148.690000	338.000000	2613.333333	9.612167
1149.190000	337.500000	2573.333333	9.613852
1149.690000	337.000000	2576.666667	9.615537
1150.190000	336.500000	2696.666667	9.617222
1150.690000	336.000000	2553.333333	9.618907
1151.190000	335.500000	2636.666667	9.620592
1151.690000	335.000000	2616.666667	9.622277
1152.190000	334.500000	2780.000000	9.623962
1152.690000	334.000000	2576.666667	9.625647
1153.190000	333.500000	2796.666667	9.627332
1153.690000	333.000000	2720.000000	9.629017
1154.190000	332.500000	2606.666667	9.630702
1154.690000	332.000000	2723.333333	9.632387
1155.190000	331.500000	2723.333333	9.634072
1155.690000	331.000000	2730.000000	9.635757
1156.190000	330.500000	2653.333333	9.637442
1156.690000	330.000000	2700.000000	9.639127
1157.190000	329.500000	2653.333333	9.640812
1157.690000	329.000000	2713.333333	9.642497
1158.190000	328.500000	2740.000000	9.644182
1158.690000	328.000000	2623.333333	9.645867
1159.190000	327.500000	2816.666667	9.647552
1159.690000	327.000000	2693.333333	9.649237
1160.190000	326.500000	2746.666667	9.650922
1160.690000	326.000000	2706.666667	9.652607
1161.190000	325.500000	2803.333333	9.654292
1161.690000	325.000000	2740.000000	9.655977
1162.190000	324.500000	2800.000000	9.657662
1162.690000	324.000000	2726.666667	9.659347
1163.190000	323.500000	2863.333333	9.661032
1163.690000	323.000000	2753.333333	9.662717
1164.190000	322.500000	2636.666667	9.664402
1164.690000	322.000000	2836.666667	9.666087
1165.190000	321.500000	2590.000000	9.667772
1165.690000	321.000000	2763.333333	9.669457
1166.190000	320.500000	2743.333333	9.671142
1166.690000	320.000000	2826.666667	9.672827
1167.190000	319.500000	2853.333333	9.674512
1167.690000	319.000000	2753.333333	9.676197
1168.190000	318.500000	2820.000000	9.677882
1168.690000	318.000000	2756.666667	9.679567
1169.190000	317.500000	2836.666667	9.681252
1169.690000	317.000000	2863.333333	9.682937
1170.190000	316.500000	2820.000000	9.684622
1170.690000	316.000000	2950.000000	9.686307
1171.190000	315.500000	2840.000000	9.687992
1171.690000	315.000000	2800.000000	9.689677
1172.190000	314.500000	2973.333333	9.691362
1172.690000	314.000000	2980.000000	9.693047
1173.190000	313.500000	2866.666667	9.694732
1173.690000	313.000000	2910.000000	9.696417
1174.190000	312.500000	2740.000000	9.698102
1174.690000	312.000000	2760.000000	9.699787
1175.190000	311.500000	2773.333333	9.701472
1175.690000	311.000000	2810.000000	9.703157
1176.190000	310.500000	2806.666667	9.704842
1176.690000	310.000000	2853.333333	9.706527
1177.190000	309.500000	2700.000000	9.708212
1177.690000	309.000000	2940.000000	9.709897
1178.190000	308.500000	2980.000000	9.711582
1178.690000	308.000000	2946.666667	9.713267
1179.190000	307.500000	2746.666667	9.714952
1179.690000	307.000000	2773.333333	9.716637
1180.190000	306.500000	2853.333333	9.718322
1180.690000	306.000000	2940.000000	9.720007
1181.190000	305.500000	2826.666667	9.721692
1181.690000	305.000000	2773.333333	9.723377
1182.190000	304.500000	2943.333333	9.725062
1182.690000	304.000000	2840.000000	9.726747
1183.190000	303.500000	2863.333333	9.728432
1183.690000	303.000000	3036.666667	9.730117
1184.190000	302.500000	2926.666667	9.731802
1184.690000	302.000000	2836.666667	9.733487
1185.190000	301.500000	2913.333333	9.735172
1185.690000	301.000000	2930.000000	9.736857
1186.190000	300.500000	2990.000000	9.738542
1186.690000	300.000000	2913.333333	9.740227
1187.190000	299.500000	2950.000000	9.741912
1187.690000	299.000000	3016.666667	9.743597
1188.190000	298.500000	2966.666667	9.745282
1188.690000	298.000000	2966.666667	9.746967
1189.190000	297.500000	2970.000000	9.748652
1189.690000	297.000000	2833.333333	9.750337
1190.190000	296.500000	2823.333333	9.752022
1190.690000	296.000000	3026.666667	9.753707
1191.190000	295.500000	2963.333333	9.755392
1191.690000	295.000000	2823.333333	9.757077
1192.190000	294.500000	2773.333333	9.758762
1192.690000	294.000000	2966.666667	9.760447
1193.190000	293.500000	2780.000000	9.762132
1193.690000	293.000000	3026.666667	9.763817
1194.190000	292.500000	3123.333333	9.765502
1194.690000	292.000000	2783.333333	9.767187
1195.190000	291.500000	2996.666667	9.768872
1195.690000	291.000000	2976.666667	9.770557
1196.190000	290.500000	2983.333333	9.772242
1196.690000	290.000000	3210.000000	9.773927
1197.190000	289.500000	3106.666667	9.775612
1197.690000	289.000000	3333.333333	9.777297
1198.190000	288.500000	3393.333333	9.778982
1198.690000	288.000000	3360.000000	9.780667
1199.190000	287.500000	3346.666667	9.782352
1199.690000	287.000000	3376.666667	9.784037
1200.190000	286.500000	3736.666667	9.785722
1200.690000	286.000000	4040.000000	9.787407
1201.190000	285.500000	4376.666667	9.789092
1201.690000	285.000000	4506.666667	9.790777
1202.190000	284.500000	4256.666667	9.792462
1202.690000	284.000000	3940.000000	9.794147
1203.190000	283.500000	3623.333333	9.795832
1203.690000	283.000000	3073.333333	9.797517
1204.190000	282.500000	2956.666667	9.799202
1204.690000	282.000000	2960.000000	9.800887
1205.190000	281.500000	2926.666667	9.802572
1205.690000	281.000000	3036.666667	9.804257
1206.190000	280.500000	3023.333333	9.805942
1206.690000	280.000000	2926.666667	9.807627
1207.190000	279.500000	2900.000000	9.809312
1207.690000	279.000000	2920.000000	9.810997
1208.190000	278.500000	2940.000000	9.812682
1208.690000	278.000000	2930.000000	9.814367
1209.190000	277.500000	2973.333333	9.816052
1209.690000	277.000000	3016.666667	9.817737
1210.190000	276.500000	3036.666667	9.819422
1210.690000	276.000000	2926.666667	9.821107
1211.190000	275.500000	2873.333333	9.822792
1211.690000	275.000000	2940.000000	9.824477
1212.190000	274.500000	3013.333333	9.826162
1212.690000	274.000000	2956.666667	9.827847
1213.190000	273.500000	3016.666667	9.829532
1213.690000	273.000000	2986.666667	9.831217
1214.190000	272.500000	2976.666667	9.832902
1214.690000	272.000000	3053.333333	9.834587
1215.190000	271.500000	2986.666667	9.836272
1215.690000	271.000000	2860.000000	9.837957
1216.190000	270.500000	3056.666667	9.839642
1216.690000	270.000000	3110.000000	9.841327
1217.190000	269.500000	3016.666667	9.843012
1217.690000	269.000000	3226.666667	9.844697
1218.190000	268.500000	3223.333333	9.846382
1218.690000	268.000000	3183.333333	9.848067
1219.190000	267.500000	2973.333333	9.849752
1219.690000	267.000000	3143.333333	9.851437
1220.190000	266.500000	3190.000000	9.853122
1220.690000	266.000000	3076.666667	9.854807
1221.190000	265.500000	3100.000000	9.856492
1221.690000	265.000000	3053.333333	9.858177
1222.190000	264.500000	3123.333333	9.859862
1222.690000	264.000000	3030.000000	9.861547
1223.190000	263.500000	3010.000000	9.863232
1223.690000	263.000000	3136.666667	9.864917
1224.190000	262.500000	3096.666667	9.866602
1224.690000	262.000000	3280.000000	9.868287
1225.190000	261.500000	3130.000000	9.869972
1225.690000	261.000000	3120.000000	9.871657
1226.190000	260.500000	3060.000000	9.873342
1226.690000	260.000000	3200.000000	9.875027
1227.190000	259.500000	3036.666667	9.876712
1227.690000	259.000000	3363.333333	9.878397
1228.190000	258.500000	3176.666667	9.880082
1228.690000	258.000000	3123.333333	9.881767
1229.190000	257.500000	3330.000000	9.883452
1229.690000	257.000000	3143.333333	9.885137
1230.190000	256.500000	3146.666667	9.886822
1230.690000	256.000000	3086.666667	9.888507
1231.190000	255.500000	3120.000000	9.890192
1231.690000	255.000000	3273.333333	9.891877
1232.190000	254.500000	3123.333333	9.893562
1232.690000	254.000000	3093.333333	9.895247
1233.190000	253.500000	3083.333333	9.896932
1233.690000	253.000000	3220.000000	9.898617
1234.190000	252.500000	3253.333333	9.900302
1234.690000	252.000000	3160.000000	9.901987
1235.190000	251.500000	3240.000000	9.903672
1235.690000	251.000000	3273.333333	9.905357
1236.190000	250.500000	3336.666667	9.907320
1236.690000	250.000000	3383.333333	9.909562
1237.190000	249.500000	3306.666667	9.911803
1237.690000	249.000000	3116.666667	9.914044
1238.190000	248.500000	3173.333333	9.916285
1238.690000	248.000000	3220.000000	9.918526
1239.190000	247.500000	3213.333333	9.920768
1239.690000	247.000000	3296.666667	9.923009
1240.190000	246.500000	3340.000000	9.925250
1240.690000	246.000000	3216.666667	9.927491
1241.190000	245.500000	3223.333333	9.929732
1241.690000	245.000000	3163.333333	9.931974
1242.190000	244.500000	3283.333333	9.934215
1242.690000	244.000000	3300.000000	9.936456
1243.190000	243.500000	3233.333333	9.938697
1243.690000	243.000000	3390.000000	9.940939
1244.190000	242.500000	3320.000000	9.943180
1244.690000	242.000000	3240.000000	9.945421
1245.190000	241.500000	3086.666667	9.947662
1245.690000	241.000000	3346.666667	9.949903
1246.190000	240.500000	3260.000000	9.952145
1246.690000	240.000000	3200.000000	9.954386
1247.190000	239.500000	3136.666667	9.956627
1247.690000	239.000000	3226.666667	9.958868
1248.190000	238.500000	3310.000000	9.961110
1248.690000	238.000000	3346.666667	9.963351
1249.190000	237.500000	3263.333333	9.965592
1249.690000	237.000000	3350.000000	9.967833
1250.190000	236.500000	3410.000000	9.970074
1250.690000	236.000000	3290.000000	9.972316
1251.190000	235.500000	3323.333333	9.974557
1251.690000	235.000000	3133.333333	9.976798
1252.190000	234.500000	3270.000000	9.979039
1252.690000	234.000000	3343.333333	9.981280
1253.190000	233.500000	3320.000000	9.983522
1253.690000	233.000000	3450.000000	9.985763
1254.190000	232.500000	3360.000000	9.988004
1254.690000	232.000000	3486.666667	9.990245
1255.190000	231.500000	3543.333333	9.992487
1255.690000	231.000000	3406.666667	9.994728
1256.190000	230.500000	3246.666667	9.996969
1256.690000	230.000000	3296.666667	9.999210
1257.190000	229.500000	3270.000000	10.001451
1257.690000	229.000000	3403.333333	10.003693
1258.190000	228.500000	3520.000000	10.005934
1258.690000	228.000000	3353.333333	10.008175
1259.190000	227.500000	3673.333333	10.010416
1259.690000	227.000000	3600.000000	10.012658
1260.190000	226.500000	3546.666667	10.014899
1260.690000	226.000000	3426.666667	10.017140
1261.190000	225.500000	3553.333333	10.019381
1261.690000	225.000000	3516.666667	10.021622
1262.190000	224.500000	3306.666667	10.023864
1262.690000	224.000000	3506.666667	10.026105
1263.190000	223.500000	3243.333333	10.028346
1263.690000	223.000000	3480.000000	10.030587
1264.190000	222.500000	3543.333333	10.032828
1264.690000	222.000000	3400.000000	10.035070
1265.190000	221.500000	3456.666667	10.037311
1265.690000	221.000000	3456.666667	10.039552
1266.190000	220.500000	3463.333333	10.041793
1266.690000	220.000000	3356.666667	10.044035
1267.190000	219.500000	3476.666667	10.046276
1267.690000	219.000000	3506.666667	10.048517
1268.190000	218.500000	3556.666667	10.050758
1268.690000	218.000000	3593.333333	10.052999
1269.190000	217.500000	3346.666667	10.055241
1269.690000	217.000000	3456.666667	10.057482
1270.190000	216.500000	3383.333333	10.059723
1270.690000	216.000000	3380.000000	10.061964
1271.190000	215.500000	3470.000000	10.064206
1271.690000	215.000000	3390.000000	10.066447
1272.190000	214.500000	3540.000000	10.068688
1272.690000	214.000000	3673.333333	10.070929
1273.190000	213.500000	3510.000000	10.073170
1273.690000	213.000000	3456.666667	10.075412
1274.190000	212.500000	3530.000000	10.077653
1274.690000	212.000000	3636.666667	10.079894
1275.190000	211.500000	3633.333333	10.082135
1275.690000	211.000000	3633.333333	10.084377
1276.190000	210.500000	3596.666667	10.086618
1276.690000	210.000000	3383.333333	10.088859
1277.190000	209.500000	3660.000000	10.091100
1277.690000	209.000000	3583.333333	10.093341
1278.190000	208.500000	3700.000000	10.095583
1278.690000	208.000000	3573.333333	10.097824
1279.190000	207.500000	3633.333333	10.100065
1279.690000	207.000000	3576.666667	10.102306
1280.190000	206.500000	3520.000000	10.104547
1280.690000	206.000000	3666.666667	10.106789
1281.190000	205.500000	3516.666667	10.109030
1281.690000	205.000000	3493.333333	10.111271
1282.190000	204.500000	3556.666667	10.113512
1282.690000	204.000000	3610.000000	10.115754
1283.190000	203.500000	3516.666667	10.117995
1283.690000	203.000000	3533.333333	10.120236
1284.190000	202.500000	3650.000000	10.122477
1284.690000	202.000000	3450.000000	10.124718
1285.190000	201.500000	3650.000000	10.126960
1285.690000	201.000000	3670.000000	10.129201
1286.190000	200.500000	3656.666667	10.131442
1286.690000	200.000000	3713.333333	10.133683
1287.190000	199.500000	3936.666667	10.135925
1287.690000	199.000000	3856.666667	10.138166
1288.190000	198.500000	3920.000000	10.140407
1288.690000	198.000000	3883.333333	10.142648
1289.190000	197.500000	3546.666667	10.144889
1289.690000	197.000000	3616.666667	10.147131
1290.190000	196.500000	3606.666667	10.149372
1290.690000	196.000000	3960.000000	10.151613
1291.190000	195.500000	3860.000000	10.153854
1291.690000	195.000000	3733.333333	10.156095
1292.190000	194.500000	3696.666667	10.158337
1292.690000	194.000000	3870.000000	10.160578
1293.190000	193.500000	3936.666667	10.162819
1293.690000	193.000000	3596.666667	10.165060
1294.190000	192.500000	3580.000000	10.167302
1294.690000	192.000000	3733.333333	10.169543
1295.190000	191.500000	3823.333333	10.171784
1295.690000	191.000000	3733.333333	10.174025
1296.190000	190.500000	3890.000000	10.176266
1296.690000	190.000000	3790.000000	10.178508
1297.190000	189.500000	3986.666667	10.180749
1297.690000	189.000000	3836.666667	10.182990
1298.190000	188.500000	3820.000000	10.185231
1298.690000	188.000000	3830.000000	10.187473
1299.190000	187.500000	3973.333333	10.189714
1299.690000	187.000000	3783.333333	10.191955
1300.190000	186.500000	3876.666667	10.194196
1300.690000	186.000000	3910.000000	10.196437
1301.190000	185.500000	3823.333333	10.198679
1301.690000	185.000000	3693.333333	10.200920
1302.190000	184.500000	3703.333333	10.203161
1302.690000	184.000000	3900.000000	10.205402
1303.190000	183.500000	3843.333333	10.207643
1303.690000	183.000000	3843.333333	10.209885
1304.190000	182.500000	3890.000000	10.212126
1304.690000	182.000000	4006.666667	10.214367
1305.190000	181.500000	3820.000000	10.216608
1305.690000	181.000000	3740.000000	10.218850
1306.190000	180.500000	3766.666667	10.221091
1306.690000	180.000000	3713.333333	10.223332
1307.190000	179.500000	3983.333333	10.225573
1307.690000	179.000000	3990.000000	10.227814
1308.190000	178.500000	3770.000000	10.230056
1308.690000	178.000000	3840.000000	10.232297
1309.190000	177.500000	3910.000000	10.234538
1309.690000	177.000000	3963.333333	10.236779
1310.190000	176.500000	3920.000000	10.239021
1310.690000	176.000000	3933.333333	10.241262
1311.190000	175.500000	3946.666667	10.243503
1311.690000	175.000000	3846.666667	10.245744
1312.190000	174.500000	3866.666667	10.247985
1312.690000	174.000000	3943.333333	10.250227
1313.190000	173.500000	3786.666667	10.252468
1313.690000	173.000000	3896.666667	10.254709
1314.190000	172.500000	4043.333333	10.256950
1314.690000	172.000000	4166.666667	10.259191
1315.190000	171.500000	4066.666667	10.261433
1315.690000	171.000000	3956.666667	10.263674
1316.190000	170.500000	3990.000000	10.265915
1316.690000	170.000000	4143.333333	10.268156
1317.190000	169.500000	3953.333333	10.270398
1317.690000	169.000000	4023.333333	10.272639
1318.190000	168.500000	4086.666667	10.274880
1318.690000	168.000000	3990.000000	10.277121
1319.190000	167.500000	4070.000000	10.279362
1319.690000	167.000000	3900.000000	10.281604
1320.190000	166.500000	3960.000000	10.283845
1320.690000	166.000000	3886.666667	10.286086
1321.190000	165.500000	4020.000000	10.288327
1321.690000	165.000000	3990.000000	10.290569
1322.190000	164.500000	4026.666667	10.292810
1322.690000	164.000000	4003.333333	10.295051
1323.190000	163.500000	4160.000000	10.297292
1323.690000	163.000000	3850.000000	10.299533
1324.190000	162.500000	4130.000000	10.301775
1324.690000	162.000000	4186.666667	10.304016
1325.190000	161.500000	4140.000000	10.306257
1325.690000	161.000000	4000.000000	10.308498
1326.190000	160.500000	4100.000000	10.310739
1326.690000	160.000000	4086.666667	10.312981
1327.190000	159.500000	4130.000000	10.315222
1327.690000	159.000000	4156.666667	10.317463
1328.190000	158.500000	4100.000000	10.319704
1328.690000	158.000000	3923.333333	10.321946
1329.190000	157.500000	4223.333333	10.324187
1329.690000	157.000000	4120.000000	10.326488
1330.190000	156.500000	4090.000000	10.328853
1330.690000	156.000000	4193.333333	10.331218
1331.190000	155.500000	4323.333333	10.333583
1331.690000	155.000000	4090.000000	10.335948
1332.190000	154.500000	4113.333333	10.338314
1332.690000	154.000000	4396.666667	10.340679
1333.190000	153.500000	4410.000000	10.343044
1333.690000	153.000000	4336.666667	10.345409
1334.190000	152.500000	4333.333333	10.347775
1334.690000	152.000000	4223.333333	10.350140
1335.190000	151.500000	4173.333333	10.352505
1335.690000	151.000000	4220.000000	10.354870
1336.190000	150.500000	4353.333333	10.357236
1336.690000	150.000000	4380.000000	10.359601
1337.190000	149.500000	4226.666667	10.361966
1337.690000	149.000000	4246.666667	10.364331
1338.190000	148.500000	4486.666667	10.366696
1338.690000	148.000000	4510.000000	10.369062
1339.190000	147.500000	4296.666667	10.371427
1339.690000	147.000000	4383.333333	10.373792
1340.190000	146.500000	4333.333333	10.376157
1340.690000	146.000000	4260.000000	10.378523
1341.190000	145.500000	4436.666667	10.380888
1341.690000	145.000000	4473.333333	10.383253
1342.190000	144.500000	4363.333333	10.385618
1342.690000	144.000000	4483.333333	10.387984
1343.190000	143.500000	4446.666667	10.390349
1343.690000	143.000000	4533.333333	10.392714
1344.190000	142.500000	4416.666667	10.395079
1344.690000	142.000000	4343.333333	10.397444
1345.190000	141.500000	4123.333333	10.399810
1345.690000	141.000000	4360.000000	10.402175
1346.190000	140.500000	4436.666667	10.404540
1346.690000	140.000000	4776.666667	10.406905
1347.190000	139.500000	4606.666667	10.409271
1347.690000	139.000000	4223.333333	10.411636
1348.190000	138.500000	4673.333333	10.414001
1348.690000	138.000000	4703.333333	10.416366
1349.190000	137.500000	4616.666667	10.418732
1349.690000	137.000000	4496.666667	10.421097
1350.190000	136.500000	4453.333333	10.423462
1350.690000	136.000000	4350.000000	10.425827
1351.190000	135.500000	4560.000000	10.428192
1351.690000	135.000000	4483.333333	10.430558
1352.190000	134.500000	4530.000000	10.432923
1352.690000	134.000000	4526.666667	10.435288
1353.190000	133.500000	4523.333333	10.437653
1353.690000	133.000000	4440.000000	10.440019
1354.190000	132.500000	4456.666667	10.442384
1354.690000	132.000000	4560.000000	10.444749
1355.190000	131.500000	4560.000000	10.447114
1355.690000	131.000000	4716.666667	10.449480
1356.190000	130.500000	4523.333333	10.451845
1356.690000	130.000000	4556.666667	10.454210
1357.190000	129.500000	4613.333333	10.456575
1357.690000	129.000000	4560.000000	10.458940
1358.190000	128.500000	4646.666667	10.461306
1358.690000	128.000000	4820.000000	10.463671
1359.190000	127.500000	4873.333333	10.466036
1359.690000	127.000000	5003.333333	10.468401
1360.190000	126.500000	5126.666667	10.470767
1360.690000	126.000000	5233.333333	10.473132
1361.190000	125.500000	5570.000000	10.475497
1361.690000	125.000000	5646.666667	10.477862
1362.190000	124.500000	5983.333333	10.480228
1362.690000	124.000000	6066.666667	10.482593
1363.190000	123.500000	6020.000000	10.484958
1363.690000	123.000000	6123.333333	10.487323
1364.190000	122.500000	5716.666667	10.489688
1364.690000	122.000000	5366.666667	10.492054
1365.190000	121.500000	5243.333333	10.494419
1365.690000	121.000000	4996.666667	10.496784
1366.190000	120.500000	5093.333333	10.499149
1366.690000	120.000000	4803.333333	10.501515
1367.190000	119.500000	4583.333333	10.503880
1367.690000	119.000000	4666.666667	10.506245
1368.190000	118.500000	4460.000000	10.508610
1368.690000	118.000000	4643.333333	10.510975
1369.190000	117.500000	4383.333333	10.513341
1369.690000	117.000000	4183.333333	10.515706
1370.190000	116.500000	4343.333333	10.518071
1370.690000	116.000000	4450.000000	10.520436
1371.190000	115.500000	4410.000000	10.522802
1371.690000	115.000000	4353.333333	10.525167
1372.190000	114.500000	4433.333333	10.527532
1372.690000	114.000000	4420.000000	10.529897
1373.190000	113.500000	4233.333333	10.532263
1373.690000	113.000000	4400.000000	10.534628
1374.190000	112.500000	4453.333333	10.536993
1374.690000	112.000000	4390.000000	10.539358
1375.190000	111.500000	4203.333333	10.541723
1375.690000	111.000000	4493.333333	10.544089
1376.190000	110.500000	4523.333333	10.546454
1376.690000	110.000000	4386.666667	10.548819
1377.190000	109.500000	4286.666667	10.551184
1377.690000	109.000000	4443.333333	10.553550
1378.190000	108.500000	4466.666667	10.555915
1378.690000	108.000000	4450.000000	10.558280
1379.190000	107.500000	4496.666667	10.560645
1379.690000	107.000000	4670.000000	10.563011
1380.190000	106.500000	4693.333333	10.565376
1380.690000	106.000000	4626.666667	10.567741
1381.190000	105.500000	4513.333333	10.570106
1381.690000	105.000000	4463.333333	10.572471
1382.190000	104.500000	4473.333333	10.574837
1382.690000	104.000000	4560.000000	10.577202
1383.190000	103.500000	4696.666667	10.579567
1383.690000	103.000000	4820.000000	10.581932
1384.190000	102.500000	4670.000000	10.584298
1384.690000	102.000000	4760.000000	10.586663
1385.190000	101.500000	4630.000000	10.589028
1385.690000	101.000000	4830.000000	10.591393
1386.190000	100.500000	4836.666667	10.593759
1386.690000	100.000000	4846.666667	10.596124
1387.190000	99.500000	4793.333333	10.598489
1387.690000	99.000000	4680.000000	10.600854
1388.190000	98.500000	4923.333333	10.603219
1388.690000	98.000000	4760.000000	10.605585
1389.190000	97.500000	4753.333333	10.607950
1389.690000	97.000000	4716.666667	10.610315
1390.190000	96.500000	5056.666667	10.612680
1390.690000	96.000000	5100.000000	10.615046
1391.190000	95.500000	5126.666667	10.617411
1391.690000	95.000000	5073.333333	10.619776
1392.190000	94.500000	5033.333333	10.622141
1392.690000	94.000000	5140.000000	10.624507
1393.190000	93.500000	5053.333333	10.626872
1393.690000	93.000000	5050.000000	10.629237
1394.190000	92.500000	5313.333333	10.631602
1394.690000	92.000000	5500.000000	10.633967
1395.190000	91.500000	5266.666667	10.636333
1395.690000	91.000000	5343.333333	10.638698
1396.190000	90.500000	5413.333333	10.641063
1396.690000	90.000000	5430.000000	10.643428
1397.190000	89.500000	5360.000000	10.645794
1397.690000	89.000000	5476.666667	10.648159
1398.190000	88.500000	5773.333333	10.650524
1398.690000	88.000000	5686.666667	10.652889
1399.190000	87.500000	5716.666667	10.655255
1399.690000	87.000000	5763.333333	10.657620
1400.190000	86.500000	5800.000000	10.659985
1400.690000	86.000000	5793.333333	10.662350
1401.190000	85.500000	5873.333333	10.664715
1401.690000	85.000000	6023.333333	10.667081
1402.190000	84.500000	5890.000000	10.669446
1402.690000	84.000000	5940.000000	10.671811
1403.190000	83.500000	6076.666667	10.674176
1403.690000	83.000000	5856.666667	10.676542
1404.190000	82.500000	5943.333333	10.678907
1404.690000	82.000000	6120.000000	10.681272
1405.190000	81.500000	6073.333333	10.683637
1405.690000	81.000000	6160.000000	10.686003
1406.190000	80.500000	6283.333333	10.688368
1406.690000	80.000000	6206.666667	10.690733
1407.190000	79.500000	6530.000000	10.693098
1407.690000	79.000000	6330.000000	10.695463
1408.190000	78.500000	6286.666667	10.697829
1408.690000	78.000000	6140.000000	10.700194
1409.190000	77.500000	5873.333333	10.702559
1409.690000	77.000000	5803.333333	10.704924
1410.190000	76.500000	5680.000000	10.707290
1410.690000	76.000000	5273.333333	10.709655
1411.190000	75.500000	5326.666667	10.712020
1411.690000	75.000000	5146.666667	10.714385
1412.190000	74.500000	4753.333333	10.716751
1412.690000	74.000000	4516.666667	10.719116
1413.190000	73.500000	4473.333333	10.721481
1413.690000	73.000000	4260.000000	10.723846
1414.190000	72.500000	4063.333333	10.726211
1414.690000	72.000000	4066.666667	10.728577
1415.190000	71.500000	3823.333333	10.730942
1415.690000	71.000000	3756.666667	10.733307
1416.190000	70.500000	3490.000000	10.735672
1416.690000	70.000000	3353.333333	10.738038
1417.190000	69.500000	3343.333333	10.740403
1417.690000	69.000000	3320.000000	10.742768
1418.190000	68.500000	3223.333333	10.745133
1418.690000	68.000000	3140.000000	10.747499
1419.190000	67.500000	3033.333333	10.749864
1419.690000	67.000000	2880.000000	10.752229
1420.190000	66.500000	2996.666667	10.754594
1420.690000	66.000000	2723.333333	10.756959
1421.190000	65.500000	2613.333333	10.759325
1421.690000	65.000000	2576.666667	10.761690
1422.190000	64.500000	2690.000000	10.764055
1422.690000	64.000000	2600.000000	10.766420
1423.190000	63.500000	2583.333333	10.768786
1423.690000	63.000000	2680.000000	10.771151
1424.190000	62.500000	2606.666667	10.773516
1424.690000	62.000000	2616.666667	10.775881
1425.190000	61.500000	2626.666667	10.778247
1425.690000	61.000000	2516.666667	10.780612
1426.190000	60.500000	2580.000000	10.782977
1426.690000	60.000000	2503.333333	10.785342
1427.190000	59.500000	2486.666667	10.787707
1427.690000	59.000000	2460.000000	10.790073
1428.190000	58.500000	2516.666667	10.792438
1428.690000	58.000000	2593.333333	10.794803
1429.190000	57.500000	2573.333333	10.797168
1429.690000	57.000000	2556.666667	10.799534
1430.190000	56.500000	2730.000000	10.801899
1430.690000	56.000000	2566.666667	10.804264
1431.190000	55.500000	2570.000000	10.806629
1431.690000	55.000000	2496.666667	10.808995
1432.190000	54.500000	2566.666667	10.811360
1432.690000	54.000000	2543.333333	10.813725
1433.190000	53.500000	2580.000000	10.816090
1433.690000	53.000000	2486.666667	10.818455
1434.190000	52.500000	2470.000000	10.820821
1434.690000	52.000000	2456.666667	10.823186
1435.190000	51.500000	2506.666667	10.825551
1435.690000	51.000000	2500.000000	10.827916
1436.190000	50.500000	2760.000000	10.830282
1436.690000	50.000000	2693.333333	10.832647
1437.190000	49.500000	2763.333333	10.835012
1437.690000	49.000000	2753.333333	10.837377
1438.190000	48.500000	2740.000000	10.839743
1438.690000	48.000000	2773.333333	10.842108
1439.190000	47.500000	2630.000000	10.844473
1439.690000	47.000000	2646.666667	10.846838
1440.190000	46.500000	2833.333333	10.849203
1440.690000	46.000000	2816.666667	10.851569
1441.190000	45.500000	3040.000000	10.853934
1441.690000	45.000000	2790.000000	10.856299
1442.190000	44.500000	2860.000000	10.858664
1442.690000	44.000000	2773.333333	10.861030
1443.190000	43.500000	2906.666667	10.863395
1443.690000	43.000000	2880.000000	10.865760
1444.190000	42.500000	2870.000000	10.868125
1444.690000	42.000000	2823.333333	10.870491
1445.190000	41.500000	2943.333333	10.872856
1445.690000	41.000000	2946.666667	10.875221
1446.190000	40.500000	3013.333333	10.877586
1446.690000	40.000000	2990.000000	10.879951
1447.190000	39.500000	3080.000000	10.882317
1447.690000	39.000000	2986.666667	10.884682
1448.190000	38.500000	3180.000000	10.887047
1448.690000	38.000000	3066.666667	10.889412
1449.190000	37.500000	2860.000000	10.891778
1449.690000	37.000000	3006.666667	10.894143
1450.190000	36.500000	3216.666667	10.896508
1450.690000	36.000000	3013.333333	10.898873
1451.190000	35.500000	3086.666667	10.901239
1451.690000	35.000000	3143.333333	10.903604
1452.190000	34.500000	3063.333333	10.905969
1452.690000	34.000000	2906.666667	10.908334
1453.190000	33.500000	3033.333333	10.910699
1453.690000	33.000000	2820.000000	10.913065
1454.190000	32.500000	2733.333333	10.915430
1454.690000	32.000000	2596.666667	10.917795
1455.190000	31.500000	2656.666667	10.920160
1455.690000	31.000000	2456.666667	10.922526
1456.190000	30.500000	2626.666667	10.924891
1456.690000	30.000000	2640.000000	10.927256
1457.190000	29.500000	2510.000000	10.929621
1457.690000	29.000000	2740.000000	10.931986
1458.190000	28.500000	3106.666667	10.934352
1458.690000	28.000000	3390.000000	10.936717
1459.190000	27.500000	3893.333333	10.939082
1459.690000	27.000000	4366.666667	10.941447
1460.190000	26.500000	4610.000000	10.943813
1460.690000	26.000000	4323.333333	10.946178
1461.190000	25.500000	3723.333333	10.948543
1461.690000	25.000000	3076.666667	10.950908
1462.190000	24.500000	2800.000000	10.953274
1462.690000	24.000000	2690.000000	10.955639
1463.190000	23.500000	2766.666667	10.955923
1463.690000	23.000000	2846.666667	10.955923
1464.190000	22.500000	3103.333333	10.955923
1464.690000	22.000000	3146.666667	10.955923
1465.190000	21.500000	3526.666667	10.955923
1465.690000	21.000000	4253.333333	10.955923
1466.190000	20.500000	5596.666667	10.955923
1466.690000	20.000000	8873.333333	10.955923
1467.190000	19.500000	12910.000000	10.955923
1467.690000	19.000000	18223.333333	10.955923
1468.190000	18.500000	22423.333333	10.955923
1468.690000	18.000000	23146.666667	10.955923
1469.190000	17.500000	20430.000000	10.955923
1469.690000	17.000000	14563.333333	10.955923
1470.190000	16.500000	8180.000000	10.955923
1470.690000	16.000000	4170.000000	10.955923
1471.190000	15.500000	2243.333333	10.955923
1471.690000	15.000000	1376.666667	10.955923
1472.190000	14.500000	966.666667	10.955923
1472.690000	14.000000	706.666667	10.955923
1473.190000	13.500000	686.666667	10.955923
1473.690000	13.000000	623.333333	10.955923
1474.190000	12.500000	496.666667	10.955923
1474.690000	12.000000	400.000000	10.955923
1475.190000	11.500000	390.000000	10.955923
1475.690000	11.000000	406.666667	10.955923
1476.190000	10.500000	503.333333	10.955923
1476.690000	10.000000	606.666667	10.955923
1477.190000	9.500000	600.000000	10.955923
1477.690000	9.000000	736.666667	10.955923
1478.190000	8.500000	800.000000	10.955923
1478.690000	8.000000	880.000000	10.955923
1479.190000	7.500000	976.666667	10.955923
1479.690000	7.000000	1006.666667	10.955923
1480.190000	6.500000	1033.333333	10.955923
1480.690000	6.000000	996.666667	10.955923
1481.190000	5.500000	1080.000000	10.955923
1481.690000	5.000000	1033.333333	10.955923
1482.190000	4.500000	1096.666667	10.955923
1482.690000	4.000000	940.000000	10.955923
1483.190000	3.500000	793.333333	10.955923
1483.690000	3.000000	540.000000	10.955923
1484.190000	2.500000	306.666667	10.955923
1484.690000	2.000000	136.666667	10.955923
1485.190000	1.500000	93.333333	10.955923
1485.690000	1.000000	53.333333	10.955923
1486.190000	0.500000	46.666667	10.955923
1486.690000	0.000000	56.666667	10.955923
1487.190000	-0.500000	40.000000	10.955923
1487.690000	-1.000000	46.666667	10.955923
1488.190000	-1.500000	23.333333	10.955923
1488.690000	-2.000000	23.333333	10.955923
1489.190000	-2.500000	30.000000	10.955923
1489.690000	-3.000000	20.000000	10.955923
1490.190000	-3.500000	20.000000	10.955923
1490.690000	-4.000000	6.666667	10.955923
1491.190000	-4.500000	13.333333	10.955923
1491.690000	-5.000000	0.000000	10.955923


