Dataset C 1s Au #2:96(rrt)
Dwell Time (s)	0.100000
Number of sweeps	3
Kinetic Energy(eV)	Binding Energy(eV)	Intensity(cps)	Transmission Value
1191.690000	295.000000	17850.000000	1.561778
1191.715000	294.975000	17513.333333	1.561777
1191.740000	294.950000	17530.000000	1.561775
1191.765000	294.925000	17543.333333	1.561774
1191.790000	294.900000	17713.333333	1.561772
1191.815000	294.875000	17706.666667	1.561771
1191.840000	294.850000	17813.333333	1.561770
1191.865000	294.825000	18156.666667	1.561768
1191.890000	294.800000	17753.333333	1.561767
1191.915000	294.775000	17876.666667	1.561765
1191.940000	294.750000	17730.000000	1.561764
1191.965000	294.725000	17833.333333	1.561762
1191.990000	294.700000	17396.666667	1.561761
1192.015000	294.675000	17526.666667	1.561759
1192.040000	294.650000	17450.000000	1.561758
1192.065000	294.625000	17550.000000	1.561756
1192.090000	294.600000	17730.000000	1.561755
1192.115000	294.575000	17843.333333	1.561753
1192.140000	294.550000	17626.666667	1.561752
1192.165000	294.525000	17466.666667	1.561750
1192.190000	294.500000	17560.000000	1.561749
1192.215000	294.475000	17573.333333	1.561747
1192.240000	294.450000	18006.666667	1.561746
1192.265000	294.425000	17423.333333	1.561744
1192.290000	294.400000	17706.666667	1.561743
1192.315000	294.375000	17786.666667	1.561741
1192.340000	294.350000	17620.000000	1.561740
1192.365000	294.325000	17536.666667	1.561738
1192.390000	294.300000	17670.000000	1.561737
1192.415000	294.275000	17710.000000	1.561735
1192.440000	294.250000	17616.666667	1.561734
1192.465000	294.225000	17533.333333	1.561732
1192.490000	294.200000	17686.666667	1.561731
1192.515000	294.175000	17540.000000	1.561730
1192.540000	294.150000	17536.666667	1.561728
1192.565000	294.125000	17763.333333	1.561727
1192.590000	294.100000	17503.333333	1.561725
1192.615000	294.075000	17643.333333	1.561724
1192.640000	294.050000	17576.666667	1.561722
1192.665000	294.025000	17640.000000	1.561721
1192.690000	294.000000	17466.666667	1.561719
1192.715000	293.975000	17320.000000	1.561718
1192.740000	293.950000	17543.333333	1.561716
1192.765000	293.925000	17416.666667	1.561715
1192.790000	293.900000	17910.000000	1.561713
1192.815000	293.875000	17513.333333	1.561712
1192.840000	293.850000	17466.666667	1.561710
1192.865000	293.825000	17710.000000	1.561709
1192.890000	293.800000	17780.000000	1.561707
1192.915000	293.775000	17803.333333	1.561706
1192.940000	293.750000	17653.333333	1.561704
1192.965000	293.725000	17820.000000	1.561703
1192.990000	293.700000	17823.333333	1.561701
1193.015000	293.675000	17606.666667	1.561700
1193.040000	293.650000	17890.000000	1.561698
1193.065000	293.625000	17916.666667	1.561697
1193.090000	293.600000	17990.000000	1.561695
1193.115000	293.575000	18023.333333	1.561694
1193.140000	293.550000	17956.666667	1.561692
1193.165000	293.525000	17770.000000	1.561691
1193.190000	293.500000	17580.000000	1.561689
1193.215000	293.475000	17546.666667	1.561688
1193.240000	293.450000	17820.000000	1.561687
1193.265000	293.425000	17860.000000	1.561685
1193.290000	293.400000	17870.000000	1.561684
1193.315000	293.375000	17896.666667	1.561682
1193.340000	293.350000	18046.666667	1.561681
1193.365000	293.325000	17556.666667	1.561679
1193.390000	293.300000	17840.000000	1.561678
1193.415000	293.275000	17783.333333	1.561676
1193.440000	293.250000	17800.000000	1.561675
1193.465000	293.225000	18053.333333	1.561673
1193.490000	293.200000	17850.000000	1.561672
1193.515000	293.175000	17896.666667	1.561670
1193.540000	293.150000	17500.000000	1.561669
1193.565000	293.125000	17786.666667	1.561667
1193.590000	293.100000	17916.666667	1.561666
1193.615000	293.075000	17630.000000	1.561664
1193.640000	293.050000	17520.000000	1.561663
1193.665000	293.025000	17550.000000	1.561661
1193.690000	293.000000	17643.333333	1.561660
1193.715000	292.975000	17673.333333	1.561658
1193.740000	292.950000	17550.000000	1.561657
1193.765000	292.925000	17583.333333	1.561655
1193.790000	292.900000	17260.000000	1.561654
1193.815000	292.875000	17553.333333	1.561652
1193.840000	292.850000	17586.666667	1.561651
1193.865000	292.825000	17903.333333	1.561649
1193.890000	292.800000	17913.333333	1.561648
1193.915000	292.775000	17553.333333	1.561647
1193.940000	292.750000	17893.333333	1.561645
1193.965000	292.725000	17773.333333	1.561644
1193.990000	292.700000	17696.666667	1.561642
1194.015000	292.675000	18123.333333	1.561641
1194.040000	292.650000	17803.333333	1.561639
1194.065000	292.625000	17736.666667	1.561638
1194.090000	292.600000	17706.666667	1.561636
1194.115000	292.575000	17613.333333	1.561635
1194.140000	292.550000	17760.000000	1.561633
1194.165000	292.525000	17716.666667	1.561632
1194.190000	292.500000	17393.333333	1.561630
1194.215000	292.475000	17523.333333	1.561629
1194.240000	292.450000	17860.000000	1.561627
1194.265000	292.425000	17616.666667	1.561626
1194.290000	292.400000	17826.666667	1.561624
1194.315000	292.375000	17966.666667	1.561623
1194.340000	292.350000	17896.666667	1.561621
1194.365000	292.325000	17816.666667	1.561620
1194.390000	292.300000	17586.666667	1.561618
1194.415000	292.275000	17613.333333	1.561617
1194.440000	292.250000	17623.333333	1.561615
1194.465000	292.225000	17766.666667	1.561614
1194.490000	292.200000	17640.000000	1.561612
1194.515000	292.175000	17733.333333	1.561611
1194.540000	292.150000	17543.333333	1.561609
1194.565000	292.125000	17846.666667	1.561608
1194.590000	292.100000	17586.666667	1.561606
1194.615000	292.075000	17286.666667	1.561605
1194.640000	292.050000	17643.333333	1.561604
1194.665000	292.025000	17906.666667	1.561602
1194.690000	292.000000	17816.666667	1.561601
1194.715000	291.975000	17666.666667	1.561599
1194.740000	291.950000	17993.333333	1.561598
1194.765000	291.925000	17566.666667	1.561596
1194.790000	291.900000	17660.000000	1.561595
1194.815000	291.875000	17850.000000	1.561593
1194.840000	291.850000	17586.666667	1.561592
1194.865000	291.825000	17363.333333	1.561590
1194.890000	291.800000	17750.000000	1.561589
1194.915000	291.775000	17363.333333	1.561587
1194.940000	291.750000	17983.333333	1.561586
1194.965000	291.725000	17516.666667	1.561584
1194.990000	291.700000	17633.333333	1.561583
1195.015000	291.675000	17580.000000	1.561581
1195.040000	291.650000	17420.000000	1.561580
1195.065000	291.625000	17976.666667	1.561578
1195.090000	291.600000	17876.666667	1.561577
1195.115000	291.575000	17690.000000	1.561575
1195.140000	291.550000	17450.000000	1.561574
1195.165000	291.525000	17143.333333	1.561572
1195.190000	291.500000	17870.000000	1.561571
1195.215000	291.475000	17636.666667	1.561569
1195.240000	291.450000	17520.000000	1.561568
1195.265000	291.425000	17623.333333	1.561566
1195.290000	291.400000	17646.666667	1.561565
1195.315000	291.375000	17636.666667	1.561563
1195.340000	291.350000	17830.000000	1.561562
1195.365000	291.325000	17833.333333	1.561561
1195.390000	291.300000	17803.333333	1.561559
1195.415000	291.275000	17423.333333	1.561558
1195.440000	291.250000	17836.666667	1.561556
1195.465000	291.225000	17936.666667	1.561555
1195.490000	291.200000	17370.000000	1.561553
1195.515000	291.175000	17530.000000	1.561552
1195.540000	291.150000	17983.333333	1.561550
1195.565000	291.125000	17833.333333	1.561549
1195.590000	291.100000	17726.666667	1.561547
1195.615000	291.075000	17693.333333	1.561546
1195.640000	291.050000	17633.333333	1.561544
1195.665000	291.025000	17836.666667	1.561543
1195.690000	291.000000	17726.666667	1.561541
1195.715000	290.975000	17610.000000	1.561540
1195.740000	290.950000	17850.000000	1.561538
1195.765000	290.925000	17780.000000	1.561537
1195.790000	290.900000	17746.666667	1.561535
1195.815000	290.875000	17843.333333	1.561534
1195.840000	290.850000	17710.000000	1.561532
1195.865000	290.825000	18003.333333	1.561531
1195.890000	290.800000	17753.333333	1.561529
1195.915000	290.775000	17643.333333	1.561528
1195.940000	290.750000	17836.666667	1.561526
1195.965000	290.725000	17880.000000	1.561525
1195.990000	290.700000	17910.000000	1.561523
1196.015000	290.675000	17966.666667	1.561522
1196.040000	290.650000	18080.000000	1.561521
1196.065000	290.625000	17666.666667	1.561519
1196.090000	290.600000	17836.666667	1.561518
1196.115000	290.575000	17550.000000	1.561516
1196.140000	290.550000	17696.666667	1.561515
1196.165000	290.525000	17770.000000	1.561513
1196.190000	290.500000	18066.666667	1.561512
1196.215000	290.475000	17706.666667	1.561510
1196.240000	290.450000	17890.000000	1.561509
1196.265000	290.425000	17820.000000	1.561507
1196.290000	290.400000	17546.666667	1.561506
1196.315000	290.375000	17696.666667	1.561504
1196.340000	290.350000	18016.666667	1.561503
1196.365000	290.325000	17693.333333	1.561501
1196.390000	290.300000	17460.000000	1.561500
1196.415000	290.275000	17686.666667	1.561498
1196.440000	290.250000	18003.333333	1.561497
1196.465000	290.225000	18116.666667	1.561495
1196.490000	290.200000	17986.666667	1.561494
1196.515000	290.175000	17743.333333	1.561492
1196.540000	290.150000	18116.666667	1.561491
1196.565000	290.125000	18336.666667	1.561489
1196.590000	290.100000	18043.333333	1.561488
1196.615000	290.075000	17840.000000	1.561486
1196.640000	290.050000	17823.333333	1.561485
1196.665000	290.025000	18173.333333	1.561483
1196.690000	290.000000	17896.666667	1.561482
1196.715000	289.975000	17840.000000	1.561480
1196.740000	289.950000	17853.333333	1.561479
1196.765000	289.925000	17746.666667	1.561478
1196.790000	289.900000	17830.000000	1.561476
1196.815000	289.875000	17923.333333	1.561475
1196.840000	289.850000	17670.000000	1.561473
1196.865000	289.825000	17900.000000	1.561472
1196.890000	289.800000	17760.000000	1.561470
1196.915000	289.775000	17946.666667	1.561469
1196.940000	289.750000	18140.000000	1.561467
1196.965000	289.725000	17796.666667	1.561466
1196.990000	289.700000	17793.333333	1.561464
1197.015000	289.675000	17716.666667	1.561463
1197.040000	289.650000	17666.666667	1.561461
1197.065000	289.625000	17836.666667	1.561460
1197.090000	289.600000	17696.666667	1.561458
1197.115000	289.575000	17696.666667	1.561457
1197.140000	289.550000	17833.333333	1.561455
1197.165000	289.525000	18300.000000	1.561454
1197.190000	289.500000	17856.666667	1.561452
1197.215000	289.475000	18233.333333	1.561451
1197.240000	289.450000	18120.000000	1.561449
1197.265000	289.425000	17846.666667	1.561448
1197.290000	289.400000	18133.333333	1.561446
1197.315000	289.375000	18220.000000	1.561445
1197.340000	289.350000	18010.000000	1.561443
1197.365000	289.325000	18060.000000	1.561442
1197.390000	289.300000	18050.000000	1.561440
1197.415000	289.275000	18316.666667	1.561439
1197.440000	289.250000	18100.000000	1.561438
1197.465000	289.225000	18013.333333	1.561436
1197.490000	289.200000	18086.666667	1.561435
1197.515000	289.175000	18066.666667	1.561433
1197.540000	289.150000	17806.666667	1.561432
1197.565000	289.125000	17746.666667	1.561430
1197.590000	289.100000	17973.333333	1.561429
1197.615000	289.075000	17760.000000	1.561427
1197.640000	289.050000	18370.000000	1.561426
1197.665000	289.025000	18180.000000	1.561424
1197.690000	289.000000	18190.000000	1.561423
1197.715000	288.975000	18223.333333	1.561421
1197.740000	288.950000	18386.666667	1.561420
1197.765000	288.925000	18056.666667	1.561418
1197.790000	288.900000	17843.333333	1.561417
1197.815000	288.875000	17966.666667	1.561415
1197.840000	288.850000	18300.000000	1.561414
1197.865000	288.825000	18036.666667	1.561412
1197.890000	288.800000	18040.000000	1.561411
1197.915000	288.775000	18116.666667	1.561409
1197.940000	288.750000	17933.333333	1.561408
1197.965000	288.725000	18123.333333	1.561406
1197.990000	288.700000	17860.000000	1.561405
1198.015000	288.675000	18530.000000	1.561403
1198.040000	288.650000	18380.000000	1.561402
1198.065000	288.625000	18100.000000	1.561400
1198.090000	288.600000	18103.333333	1.561399
1198.115000	288.575000	18173.333333	1.561397
1198.140000	288.550000	18460.000000	1.561396
1198.165000	288.525000	18360.000000	1.561395
1198.190000	288.500000	18226.666667	1.561393
1198.215000	288.475000	18893.333333	1.561392
1198.240000	288.450000	18793.333333	1.561390
1198.265000	288.425000	18610.000000	1.561389
1198.290000	288.400000	19010.000000	1.561387
1198.315000	288.375000	18650.000000	1.561386
1198.340000	288.350000	18620.000000	1.561384
1198.365000	288.325000	18650.000000	1.561383
1198.390000	288.300000	18790.000000	1.561381
1198.415000	288.275000	18933.333333	1.561380
1198.440000	288.250000	18560.000000	1.561378
1198.465000	288.225000	18563.333333	1.561377
1198.490000	288.200000	18710.000000	1.561375
1198.515000	288.175000	18866.666667	1.561374
1198.540000	288.150000	18593.333333	1.561372
1198.565000	288.125000	18166.666667	1.561371
1198.590000	288.100000	18476.666667	1.561369
1198.615000	288.075000	18546.666667	1.561368
1198.640000	288.050000	18743.333333	1.561366
1198.665000	288.025000	18653.333333	1.561365
1198.690000	288.000000	18530.000000	1.561363
1198.715000	287.975000	18483.333333	1.561362
1198.740000	287.950000	18076.666667	1.561360
1198.765000	287.925000	18343.333333	1.561359
1198.790000	287.900000	18266.666667	1.561357
1198.815000	287.875000	18333.333333	1.561356
1198.840000	287.850000	18256.666667	1.561355
1198.865000	287.825000	18370.000000	1.561353
1198.890000	287.800000	18046.666667	1.561352
1198.915000	287.775000	18450.000000	1.561350
1198.940000	287.750000	18216.666667	1.561349
1198.965000	287.725000	18386.666667	1.561347
1198.990000	287.700000	18573.333333	1.561346
1199.015000	287.675000	18660.000000	1.561344
1199.040000	287.650000	18713.333333	1.561343
1199.065000	287.625000	18756.666667	1.561341
1199.090000	287.600000	18470.000000	1.561340
1199.115000	287.575000	18570.000000	1.561338
1199.140000	287.550000	18063.333333	1.561337
1199.165000	287.525000	18383.333333	1.561335
1199.190000	287.500000	18310.000000	1.561334
1199.215000	287.475000	18680.000000	1.561332
1199.240000	287.450000	18440.000000	1.561331
1199.265000	287.425000	18226.666667	1.561329
1199.290000	287.400000	18446.666667	1.561328
1199.315000	287.375000	18596.666667	1.561326
1199.340000	287.350000	18553.333333	1.561325
1199.365000	287.325000	18530.000000	1.561323
1199.390000	287.300000	18573.333333	1.561322
1199.415000	287.275000	18606.666667	1.561320
1199.440000	287.250000	18113.333333	1.561319
1199.465000	287.225000	18336.666667	1.561317
1199.490000	287.200000	18426.666667	1.561316
1199.515000	287.175000	18470.000000	1.561314
1199.540000	287.150000	18606.666667	1.561313
1199.565000	287.125000	18346.666667	1.561312
1199.590000	287.100000	18213.333333	1.561310
1199.615000	287.075000	18363.333333	1.561309
1199.640000	287.050000	18206.666667	1.561307
1199.665000	287.025000	18410.000000	1.561306
1199.690000	287.000000	18446.666667	1.561304
1199.715000	286.975000	18683.333333	1.561303
1199.740000	286.950000	18706.666667	1.561301
1199.765000	286.925000	18470.000000	1.561300
1199.790000	286.900000	18490.000000	1.561298
1199.815000	286.875000	18516.666667	1.561297
1199.840000	286.850000	18680.000000	1.561295
1199.865000	286.825000	18903.333333	1.561294
1199.890000	286.800000	18646.666667	1.561292
1199.915000	286.775000	18896.666667	1.561291
1199.940000	286.750000	18940.000000	1.561289
1199.965000	286.725000	18580.000000	1.561288
1199.990000	286.700000	18536.666667	1.561286
1200.015000	286.675000	18560.000000	1.561285
1200.040000	286.650000	18993.333333	1.561283
1200.065000	286.625000	19043.333333	1.561282
1200.090000	286.600000	18943.333333	1.561280
1200.115000	286.575000	19163.333333	1.561279
1200.140000	286.550000	19033.333333	1.561277
1200.165000	286.525000	19110.000000	1.561276
1200.190000	286.500000	19036.666667	1.561274
1200.215000	286.475000	18680.000000	1.561273
1200.240000	286.450000	18910.000000	1.561271
1200.265000	286.425000	18793.333333	1.561270
1200.290000	286.400000	18963.333333	1.561269
1200.315000	286.375000	19236.666667	1.561267
1200.340000	286.350000	19460.000000	1.561266
1200.365000	286.325000	19420.000000	1.561264
1200.390000	286.300000	18696.666667	1.561263
1200.415000	286.275000	19226.666667	1.561261
1200.440000	286.250000	19366.666667	1.561260
1200.465000	286.225000	19710.000000	1.561258
1200.490000	286.200000	19613.333333	1.561257
1200.515000	286.175000	19443.333333	1.561255
1200.540000	286.150000	19280.000000	1.561254
1200.565000	286.125000	19556.666667	1.561252
1200.590000	286.100000	19720.000000	1.561251
1200.615000	286.075000	19460.000000	1.561249
1200.640000	286.050000	19760.000000	1.561248
1200.665000	286.025000	20126.666667	1.561246
1200.690000	286.000000	19650.000000	1.561245
1200.715000	285.975000	19613.333333	1.561243
1200.740000	285.950000	19783.333333	1.561242
1200.765000	285.925000	19563.333333	1.561240
1200.790000	285.900000	19633.333333	1.561239
1200.815000	285.875000	19980.000000	1.561237
1200.840000	285.850000	20030.000000	1.561236
1200.865000	285.825000	20143.333333	1.561234
1200.890000	285.800000	20123.333333	1.561233
1200.915000	285.775000	20123.333333	1.561231
1200.940000	285.750000	19950.000000	1.561230
1200.965000	285.725000	19860.000000	1.561229
1200.990000	285.700000	19680.000000	1.561227
1201.015000	285.675000	19843.333333	1.561226
1201.040000	285.650000	19733.333333	1.561224
1201.065000	285.625000	20246.666667	1.561223
1201.090000	285.600000	20446.666667	1.561221
1201.115000	285.575000	20243.333333	1.561220
1201.140000	285.550000	20480.000000	1.561218
1201.165000	285.525000	20280.000000	1.561217
1201.190000	285.500000	20230.000000	1.561215
1201.215000	285.475000	20450.000000	1.561214
1201.240000	285.450000	20643.333333	1.561212
1201.265000	285.425000	20570.000000	1.561211
1201.290000	285.400000	20406.666667	1.561209
1201.315000	285.375000	20833.333333	1.561208
1201.340000	285.350000	20586.666667	1.561206
1201.365000	285.325000	20976.666667	1.561205
1201.390000	285.300000	20920.000000	1.561203
1201.415000	285.275000	20516.666667	1.561202
1201.440000	285.250000	20583.333333	1.561200
1201.465000	285.225000	20936.666667	1.561199
1201.490000	285.200000	21243.333333	1.561197
1201.515000	285.175000	21520.000000	1.561196
1201.540000	285.150000	21570.000000	1.561194
1201.565000	285.125000	21593.333333	1.561193
1201.590000	285.100000	21823.333333	1.561191
1201.615000	285.075000	22023.333333	1.561190
1201.640000	285.050000	22143.333333	1.561188
1201.665000	285.025000	21476.666667	1.561187
1201.690000	285.000000	22056.666667	1.561186
1201.715000	284.975000	21956.666667	1.561184
1201.740000	284.950000	22363.333333	1.561183
1201.765000	284.925000	22583.333333	1.561181
1201.790000	284.900000	22823.333333	1.561180
1201.815000	284.875000	22706.666667	1.561178
1201.840000	284.850000	22673.333333	1.561177
1201.865000	284.825000	23006.666667	1.561175
1201.890000	284.800000	23373.333333	1.561174
1201.915000	284.775000	23603.333333	1.561172
1201.940000	284.750000	23956.666667	1.561171
1201.965000	284.725000	23613.333333	1.561169
1201.990000	284.700000	23756.666667	1.561168
1202.015000	284.675000	23710.000000	1.561166
1202.040000	284.650000	23853.333333	1.561165
1202.065000	284.625000	24486.666667	1.561163
1202.090000	284.600000	24856.666667	1.561162
1202.115000	284.575000	24796.666667	1.561160
1202.140000	284.550000	24223.333333	1.561159
1202.165000	284.525000	25030.000000	1.561157
1202.190000	284.500000	25046.666667	1.561156
1202.215000	284.475000	24966.666667	1.561154
1202.240000	284.450000	25463.333333	1.561153
1202.265000	284.425000	25250.000000	1.561151
1202.290000	284.400000	25320.000000	1.561150
1202.315000	284.375000	24946.666667	1.561148
1202.340000	284.350000	25276.666667	1.561147
1202.365000	284.325000	25563.333333	1.561146
1202.390000	284.300000	25636.666667	1.561144
1202.415000	284.275000	25246.666667	1.561143
1202.440000	284.250000	25080.000000	1.561141
1202.465000	284.225000	25603.333333	1.561140
1202.490000	284.200000	25220.000000	1.561138
1202.515000	284.175000	25486.666667	1.561137
1202.540000	284.150000	25140.000000	1.561135
1202.565000	284.125000	25336.666667	1.561134
1202.590000	284.100000	24920.000000	1.561132
1202.615000	284.075000	25163.333333	1.561131
1202.640000	284.050000	24806.666667	1.561129
1202.665000	284.025000	24713.333333	1.561128
1202.690000	284.000000	24570.000000	1.561126
1202.715000	283.975000	24203.333333	1.561125
1202.740000	283.950000	24043.333333	1.561123
1202.765000	283.925000	23886.666667	1.561122
1202.790000	283.900000	23826.666667	1.561120
1202.815000	283.875000	23550.000000	1.561119
1202.840000	283.850000	23326.666667	1.561117
1202.865000	283.825000	23646.666667	1.561116
1202.890000	283.800000	23006.666667	1.561114
1202.915000	283.775000	22860.000000	1.561113
1202.940000	283.750000	22473.333333	1.561111
1202.965000	283.725000	22720.000000	1.561110
1202.990000	283.700000	22343.333333	1.561108
1203.015000	283.675000	22013.333333	1.561107
1203.040000	283.650000	21990.000000	1.561105
1203.065000	283.625000	21650.000000	1.561104
1203.090000	283.600000	21696.666667	1.561103
1203.115000	283.575000	21250.000000	1.561101
1203.140000	283.550000	20766.666667	1.561100
1203.165000	283.525000	20303.333333	1.561098
1203.190000	283.500000	20690.000000	1.561097
1203.215000	283.475000	20766.666667	1.561095
1203.240000	283.450000	20223.333333	1.561094
1203.265000	283.425000	20090.000000	1.561092
1203.290000	283.400000	19856.666667	1.561091
1203.315000	283.375000	20040.000000	1.561089
1203.340000	283.350000	19866.666667	1.561088
1203.365000	283.325000	19310.000000	1.561086
1203.390000	283.300000	19113.333333	1.561085
1203.415000	283.275000	18836.666667	1.561083
1203.440000	283.250000	19106.666667	1.561082
1203.465000	283.225000	19050.000000	1.561080
1203.490000	283.200000	18733.333333	1.561079
1203.515000	283.175000	18810.000000	1.561077
1203.540000	283.150000	18336.666667	1.561076
1203.565000	283.125000	18780.000000	1.561074
1203.590000	283.100000	18870.000000	1.561073
1203.615000	283.075000	18616.666667	1.561071
1203.640000	283.050000	18443.333333	1.561070
1203.665000	283.025000	18666.666667	1.561068
1203.690000	283.000000	17900.000000	1.561067
1203.715000	282.975000	18273.333333	1.561065
1203.740000	282.950000	18416.666667	1.561064
1203.765000	282.925000	17923.333333	1.561062
1203.790000	282.900000	17903.333333	1.561061
1203.815000	282.875000	17983.333333	1.561060
1203.840000	282.850000	17766.666667	1.561058
1203.865000	282.825000	17800.000000	1.561057
1203.890000	282.800000	17820.000000	1.561055
1203.915000	282.775000	17366.666667	1.561054
1203.940000	282.750000	17740.000000	1.561052
1203.965000	282.725000	17760.000000	1.561051
1203.990000	282.700000	17453.333333	1.561049
1204.015000	282.675000	17746.666667	1.561048
1204.040000	282.650000	17986.666667	1.561046
1204.065000	282.625000	18003.333333	1.561045
1204.090000	282.600000	17926.666667	1.561043
1204.115000	282.575000	17706.666667	1.561042
1204.140000	282.550000	17736.666667	1.561040
1204.165000	282.525000	18036.666667	1.561039
1204.190000	282.500000	17640.000000	1.561037
1204.215000	282.475000	17776.666667	1.561036
1204.240000	282.450000	17430.000000	1.561034
1204.265000	282.425000	17796.666667	1.561033
1204.290000	282.400000	17736.666667	1.561031
1204.315000	282.375000	17166.666667	1.561030
1204.340000	282.350000	17440.000000	1.561028
1204.365000	282.325000	17943.333333	1.561027
1204.390000	282.300000	17646.666667	1.561025
1204.415000	282.275000	17426.666667	1.561024
1204.440000	282.250000	17693.333333	1.561022
1204.465000	282.225000	17523.333333	1.561021
1204.490000	282.200000	17516.666667	1.561020
1204.515000	282.175000	17653.333333	1.561018
1204.540000	282.150000	17713.333333	1.561017
1204.565000	282.125000	17606.666667	1.561015
1204.590000	282.100000	17620.000000	1.561014
1204.615000	282.075000	17496.666667	1.561012
1204.640000	282.050000	17553.333333	1.561011
1204.665000	282.025000	17490.000000	1.561009
1204.690000	282.000000	17876.666667	1.561008
1204.715000	281.975000	17726.666667	1.561006
1204.740000	281.950000	17650.000000	1.561005
1204.765000	281.925000	17650.000000	1.561003
1204.790000	281.900000	17676.666667	1.561002
1204.815000	281.875000	17630.000000	1.561000
1204.840000	281.850000	17796.666667	1.560999
1204.865000	281.825000	17736.666667	1.560997
1204.890000	281.800000	17643.333333	1.560996
1204.915000	281.775000	17753.333333	1.560994
1204.940000	281.750000	17486.666667	1.560993
1204.965000	281.725000	17770.000000	1.560991
1204.990000	281.700000	17873.333333	1.560990
1205.015000	281.675000	17650.000000	1.560988
1205.040000	281.650000	17710.000000	1.560987
1205.065000	281.625000	17916.666667	1.560985
1205.090000	281.600000	17656.666667	1.560984
1205.115000	281.575000	17710.000000	1.560982
1205.140000	281.550000	17763.333333	1.560981
1205.165000	281.525000	17580.000000	1.560979
1205.190000	281.500000	17613.333333	1.560978
1205.215000	281.475000	17726.666667	1.560977
1205.240000	281.450000	17686.666667	1.560975
1205.265000	281.425000	17350.000000	1.560974
1205.290000	281.400000	17733.333333	1.560972
1205.315000	281.375000	17816.666667	1.560971
1205.340000	281.350000	17920.000000	1.560969
1205.365000	281.325000	17540.000000	1.560968
1205.390000	281.300000	17366.666667	1.560966
1205.415000	281.275000	17543.333333	1.560965
1205.440000	281.250000	17766.666667	1.560963
1205.465000	281.225000	17563.333333	1.560962
1205.490000	281.200000	17680.000000	1.560960
1205.515000	281.175000	17650.000000	1.560959
1205.540000	281.150000	17870.000000	1.560957
1205.565000	281.125000	17676.666667	1.560956
1205.590000	281.100000	17783.333333	1.560954
1205.615000	281.075000	17713.333333	1.560953
1205.640000	281.050000	17623.333333	1.560951
1205.665000	281.025000	17446.666667	1.560950
1205.690000	281.000000	17570.000000	1.560948
1205.715000	280.975000	17770.000000	1.560947
1205.740000	280.950000	17510.000000	1.560945
1205.765000	280.925000	17336.666667	1.560944
1205.790000	280.900000	17446.666667	1.560942
1205.815000	280.875000	17423.333333	1.560941
1205.840000	280.850000	17523.333333	1.560939
1205.865000	280.825000	17866.666667	1.560938
1205.890000	280.800000	17896.666667	1.560937
1205.915000	280.775000	17566.666667	1.560935
1205.940000	280.750000	17530.000000	1.560934
1205.965000	280.725000	17803.333333	1.560932
1205.990000	280.700000	17523.333333	1.560931
1206.015000	280.675000	17450.000000	1.560929
1206.040000	280.650000	17580.000000	1.560928
1206.065000	280.625000	17626.666667	1.560926
1206.090000	280.600000	17746.666667	1.560925
1206.115000	280.575000	18013.333333	1.560923
1206.140000	280.550000	17663.333333	1.560922
1206.165000	280.525000	17720.000000	1.560920
1206.190000	280.500000	17540.000000	1.560919
1206.215000	280.475000	17350.000000	1.560917
1206.240000	280.450000	17830.000000	1.560916
1206.265000	280.425000	17856.666667	1.560914
1206.290000	280.400000	18006.666667	1.560913
1206.315000	280.375000	17410.000000	1.560911
1206.340000	280.350000	17856.666667	1.560910
1206.365000	280.325000	17773.333333	1.560908
1206.390000	280.300000	17470.000000	1.560907
1206.415000	280.275000	17733.333333	1.560905
1206.440000	280.250000	17683.333333	1.560904
1206.465000	280.225000	17710.000000	1.560902
1206.490000	280.200000	17753.333333	1.560901
1206.515000	280.175000	17586.666667	1.560899
1206.540000	280.150000	17606.666667	1.560898
1206.565000	280.125000	17626.666667	1.560896
1206.590000	280.100000	17850.000000	1.560895
1206.615000	280.075000	17763.333333	1.560894
1206.640000	280.050000	17853.333333	1.560892
1206.665000	280.025000	17630.000000	1.560891
1206.690000	280.000000	17636.666667	1.560889
1206.715000	279.975000	17716.666667	1.560888
1206.740000	279.950000	17993.333333	1.560886
1206.765000	279.925000	17736.666667	1.560885
1206.790000	279.900000	17606.666667	1.560883
1206.815000	279.875000	17593.333333	1.560882
1206.840000	279.850000	17540.000000	1.560880
1206.865000	279.825000	17680.000000	1.560879
1206.890000	279.800000	17763.333333	1.560877
1206.915000	279.775000	17306.666667	1.560876
1206.940000	279.750000	17543.333333	1.560874
1206.965000	279.725000	17603.333333	1.560873
1206.990000	279.700000	17546.666667	1.560871
1207.015000	279.675000	17413.333333	1.560870
1207.040000	279.650000	17316.666667	1.560868
1207.065000	279.625000	17526.666667	1.560867
1207.090000	279.600000	17433.333333	1.560865
1207.115000	279.575000	17673.333333	1.560864
1207.140000	279.550000	17703.333333	1.560862
1207.165000	279.525000	17830.000000	1.560861
1207.190000	279.500000	17636.666667	1.560859
1207.215000	279.475000	17726.666667	1.560858
1207.240000	279.450000	17746.666667	1.560856
1207.265000	279.425000	17350.000000	1.560855
1207.290000	279.400000	17610.000000	1.560854
1207.315000	279.375000	17876.666667	1.560852
1207.340000	279.350000	17633.333333	1.560851
1207.365000	279.325000	17790.000000	1.560849
1207.390000	279.300000	17560.000000	1.560848
1207.415000	279.275000	17273.333333	1.560846
1207.440000	279.250000	17580.000000	1.560845
1207.465000	279.225000	17766.666667	1.560843
1207.490000	279.200000	17886.666667	1.560842
1207.515000	279.175000	18020.000000	1.560840
1207.540000	279.150000	17916.666667	1.560839
1207.565000	279.125000	17463.333333	1.560837
1207.590000	279.100000	17480.000000	1.560836
1207.615000	279.075000	17983.333333	1.560834
1207.640000	279.050000	18216.666667	1.560833
1207.665000	279.025000	17703.333333	1.560831
1207.690000	279.000000	17413.333333	1.560830
1207.715000	278.975000	17450.000000	1.560828
1207.740000	278.950000	17550.000000	1.560827
1207.765000	278.925000	17720.000000	1.560825
1207.790000	278.900000	17716.666667	1.560824
1207.815000	278.875000	18060.000000	1.560822
1207.840000	278.850000	17700.000000	1.560821
1207.865000	278.825000	17900.000000	1.560819
1207.890000	278.800000	17746.666667	1.560818
1207.915000	278.775000	17630.000000	1.560816
1207.940000	278.750000	17943.333333	1.560815
1207.965000	278.725000	17736.666667	1.560813
1207.990000	278.700000	17483.333333	1.560812
1208.015000	278.675000	17626.666667	1.560811
1208.040000	278.650000	17373.333333	1.560809
1208.065000	278.625000	17493.333333	1.560808
1208.090000	278.600000	17506.666667	1.560806
1208.115000	278.575000	17786.666667	1.560805
1208.140000	278.550000	17466.666667	1.560803
1208.165000	278.525000	17783.333333	1.560802
1208.190000	278.500000	18083.333333	1.560800
1208.215000	278.475000	18046.666667	1.560799
1208.240000	278.450000	17913.333333	1.560797
1208.265000	278.425000	17816.666667	1.560796
1208.290000	278.400000	17753.333333	1.560794
1208.315000	278.375000	17653.333333	1.560793
1208.340000	278.350000	17663.333333	1.560791
1208.365000	278.325000	17623.333333	1.560790
1208.390000	278.300000	17733.333333	1.560788
1208.415000	278.275000	17670.000000	1.560787
1208.440000	278.250000	17713.333333	1.560785
1208.465000	278.225000	17363.333333	1.560784
1208.490000	278.200000	17256.666667	1.560782
1208.515000	278.175000	17693.333333	1.560781
1208.540000	278.150000	17650.000000	1.560779
1208.565000	278.125000	17553.333333	1.560778
1208.590000	278.100000	17560.000000	1.560776
1208.615000	278.075000	17570.000000	1.560775
1208.640000	278.050000	17550.000000	1.560773
1208.665000	278.025000	17603.333333	1.560772
1208.690000	278.000000	17436.666667	1.560770
1208.715000	277.975000	17596.666667	1.560769
1208.740000	277.950000	17600.000000	1.560768
1208.765000	277.925000	17713.333333	1.560766
1208.790000	277.900000	18110.000000	1.560765
1208.815000	277.875000	17830.000000	1.560763
1208.840000	277.850000	17900.000000	1.560762
1208.865000	277.825000	17760.000000	1.560760
1208.890000	277.800000	17473.333333	1.560759
1208.915000	277.775000	17526.666667	1.560757
1208.940000	277.750000	17633.333333	1.560756
1208.965000	277.725000	17860.000000	1.560754
1208.990000	277.700000	17886.666667	1.560753
1209.015000	277.675000	17946.666667	1.560751
1209.040000	277.650000	17983.333333	1.560750
1209.065000	277.625000	17470.000000	1.560748
1209.090000	277.600000	17753.333333	1.560747
1209.115000	277.575000	17900.000000	1.560745
1209.140000	277.550000	17380.000000	1.560744
1209.165000	277.525000	17590.000000	1.560742
1209.190000	277.500000	17846.666667	1.560741
1209.215000	277.475000	17710.000000	1.560739
1209.240000	277.450000	17653.333333	1.560738
1209.265000	277.425000	17496.666667	1.560736
1209.290000	277.400000	17233.333333	1.560735
1209.315000	277.375000	17656.666667	1.560733
1209.340000	277.350000	18026.666667	1.560732
1209.365000	277.325000	17916.666667	1.560730
1209.390000	277.300000	17893.333333	1.560729
1209.415000	277.275000	17590.000000	1.560728
1209.440000	277.250000	17580.000000	1.560726
1209.465000	277.225000	17496.666667	1.560725
1209.490000	277.200000	17750.000000	1.560723
1209.515000	277.175000	18090.000000	1.560722
1209.540000	277.150000	17600.000000	1.560720
1209.565000	277.125000	17873.333333	1.560719
1209.590000	277.100000	18183.333333	1.560717
1209.615000	277.075000	17636.666667	1.560716
1209.640000	277.050000	17563.333333	1.560714
1209.665000	277.025000	17713.333333	1.560713
1209.690000	277.000000	17893.333333	1.560711
1209.715000	276.975000	17703.333333	1.560710
1209.740000	276.950000	17553.333333	1.560708
1209.765000	276.925000	17506.666667	1.560707
1209.790000	276.900000	17476.666667	1.560705
1209.815000	276.875000	17933.333333	1.560704
1209.840000	276.850000	17610.000000	1.560702
1209.865000	276.825000	17533.333333	1.560701
1209.890000	276.800000	17486.666667	1.560699
1209.915000	276.775000	17610.000000	1.560698
1209.940000	276.750000	17930.000000	1.560696
1209.965000	276.725000	17766.666667	1.560695
1209.990000	276.700000	18083.333333	1.560693
1210.015000	276.675000	18240.000000	1.560692
1210.040000	276.650000	18063.333333	1.560690
1210.065000	276.625000	17783.333333	1.560689
1210.090000	276.600000	17836.666667	1.560687
1210.115000	276.575000	17953.333333	1.560686
1210.140000	276.550000	17676.666667	1.560685
1210.165000	276.525000	17653.333333	1.560683
1210.190000	276.500000	17510.000000	1.560682
1210.215000	276.475000	17696.666667	1.560680
1210.240000	276.450000	17656.666667	1.560679
1210.265000	276.425000	17710.000000	1.560677
1210.290000	276.400000	17800.000000	1.560676
1210.315000	276.375000	17746.666667	1.560674
1210.340000	276.350000	17590.000000	1.560673
1210.365000	276.325000	17603.333333	1.560671
1210.390000	276.300000	17696.666667	1.560670
1210.415000	276.275000	17676.666667	1.560668
1210.440000	276.250000	17926.666667	1.560667
1210.465000	276.225000	17720.000000	1.560665
1210.490000	276.200000	17790.000000	1.560664
1210.515000	276.175000	17680.000000	1.560662
1210.540000	276.150000	17236.666667	1.560661
1210.565000	276.125000	17590.000000	1.560659
1210.590000	276.100000	17733.333333	1.560658
1210.615000	276.075000	17843.333333	1.560656
1210.640000	276.050000	17763.333333	1.560655
1210.665000	276.025000	17406.666667	1.560653
1210.690000	276.000000	17753.333333	1.560652
1210.715000	275.975000	17616.666667	1.560650
1210.740000	275.950000	17560.000000	1.560649
1210.765000	275.925000	17560.000000	1.560647
1210.790000	275.900000	17423.333333	1.560646
1210.815000	275.875000	17896.666667	1.560645
1210.840000	275.850000	18080.000000	1.560643
1210.865000	275.825000	18016.666667	1.560642
1210.890000	275.800000	17886.666667	1.560640
1210.915000	275.775000	17853.333333	1.560639
1210.940000	275.750000	17496.666667	1.560637
1210.965000	275.725000	17620.000000	1.560636
1210.990000	275.700000	17663.333333	1.560634
1211.015000	275.675000	17323.333333	1.560633
1211.040000	275.650000	17643.333333	1.560631
1211.065000	275.625000	17670.000000	1.560630
1211.090000	275.600000	18110.000000	1.560628
1211.115000	275.575000	17706.666667	1.560627
1211.140000	275.550000	17753.333333	1.560625
1211.165000	275.525000	17573.333333	1.560624
1211.190000	275.500000	17533.333333	1.560622
1211.215000	275.475000	17833.333333	1.560621
1211.240000	275.450000	17883.333333	1.560619
1211.265000	275.425000	18056.666667	1.560618
1211.290000	275.400000	17240.000000	1.560616
1211.315000	275.375000	17516.666667	1.560615
1211.340000	275.350000	17970.000000	1.560613
1211.365000	275.325000	17766.666667	1.560612
1211.390000	275.300000	17783.333333	1.560610
1211.415000	275.275000	17866.666667	1.560609
1211.440000	275.250000	18076.666667	1.560607
1211.465000	275.225000	17986.666667	1.560606
1211.490000	275.200000	17873.333333	1.560604
1211.515000	275.175000	17846.666667	1.560603
1211.540000	275.150000	17703.333333	1.560602
1211.565000	275.125000	17740.000000	1.560600
1211.590000	275.100000	17610.000000	1.560599
1211.615000	275.075000	17893.333333	1.560597
1211.640000	275.050000	17793.333333	1.560596
1211.665000	275.025000	17983.333333	1.560594
1211.690000	275.000000	17363.333333	1.560593


