Material : C60(100A)/silver       Fermi energy : 2.33
Start eV : 0.00   End eV : 7.00   Step eV : 0.02   Dwell(sec)1.00   Delay(Sec)0.10   Sweep : 5
Kinetic energy	CPS	Current	CPS/uA
eV	    	uA	    

0.000000000	41.600000000	0.351222400	118.443470576
0.020000000	34.600000000	0.000007860	4402035.623409669
0.040000000	40.400000000	0.000009120	4429824.561403507
0.060000000	40.400000000	0.000011640	3470790.378006872
0.080000000	36.000000000	0.000000900	40000000.000000000
0.100000000	42.600000000	0.000009560	4456066.945606694
0.120000000	39.000000000	0.000012220	3191489.361702127
0.140000000	40.800000000	0.000008340	4892086.330935251
0.160000000	36.200000000	0.000010920	3315018.315018314
0.180000000	39.000000000	0.000012380	3150242.326332794
0.200000000	43.600000000	0.000009560	4560669.456066946
0.220000000	38.400000000	0.000011660	3293310.463121783
0.240000000	43.400000000	0.000009980	4348697.394789578
0.260000000	42.600000000	0.000014140	3012729.844413012
0.280000000	40.600000000	0.000012280	3306188.925081433
0.300000000	44.000000000	0.000010680	4119850.187265918
0.320000000	41.800000000	0.000013660	3060029.282576866
0.340000000	45.000000000	0.000017160	2622377.622377622
0.360000000	42.600000000	0.000011400	3736842.105263158
0.380000000	41.400000000	0.000013900	2978417.266187050
0.400000000	45.400000000	0.000015720	2888040.712468193
0.420000000	43.400000000	0.000012680	3422712.933753944
0.440000000	43.200000000	0.000015620	2765685.019206146
0.460000000	45.000000000	0.000013800	3260869.565217391
0.480000000	37.000000000	0.000018880	1959745.762711864
0.500000000	42.800000000	0.000018200	2351648.351648351
0.520000000	44.400000000	0.000010680	4157303.370786516
0.540000000	40.400000000	0.000021740	1858325.666973321
0.560000000	39.600000000	0.000019340	2047569.803516029
0.580000000	36.600000000	0.000023720	1543001.686340641
0.600000000	37.200000000	0.000027040	1375739.644970414
0.620000000	42.000000000	0.000029040	1446280.991735537
0.640000000	41.600000000	0.000027920	1489971.346704871
0.660000000	46.400000000	0.000036180	1282476.506357103
0.680000000	42.400000000	0.000038740	1094475.993804853
0.700000000	42.000000000	0.000049640	846091.861402095
0.720000000	39.000000000	0.000053580	727883.538633818
0.740000000	46.000000000	0.000064580	712294.828120161
0.760000000	44.400000000	0.000078740	563881.127762255
0.780000000	51.400000000	0.000089360	575201.432408236
0.800000000	38.800000000	0.000108620	357208.617197569
0.820000000	43.200000000	0.000134740	320617.485527683
0.840000000	45.600000000	0.000157340	289818.228041185
0.860000000	41.400000000	0.000190840	216935.652902955
0.880000000	37.200000000	0.000234540	158608.339728831
0.900000000	42.600000000	0.000267140	159466.946170547
0.920000000	46.600000000	0.000322960	144290.314590042
0.940000000	40.600000000	0.000386260	105110.547299746
0.960000000	37.400000000	0.000466600	80154.307758251
0.980000000	40.000000000	0.000579240	69056.004419584
1.000000000	44.200000000	0.000700000	63142.857142857
1.020000000	46.000000000	0.000841840	54642.212296874
1.040000000	44.800000000	0.001035760	43253.263304240
1.060000000	44.400000000	0.001246240	35627.166516883
1.080000000	41.400000000	0.001493180	27726.061158065
1.100000000	38.000000000	0.001840740	20643.871486467
1.120000000	44.400000000	0.002964200	14978.746373389
1.140000000	39.600000000	0.002663600	14867.097161736
1.160000000	40.800000000	0.003110000	13118.971061093
1.180000000	45.400000000	0.003766200	12054.590834263
1.200000000	46.600000000	0.004438400	10499.279019466
1.220000000	44.000000000	0.005091400	8642.023804847
1.240000000	48.400000000	0.005972200	8104.216201735
1.260000000	43.200000000	0.007174400	6021.409455843
1.280000000	49.400000000	0.008436800	5855.300587901
1.300000000	41.800000000	0.009800800	4264.957962615
1.320000000	40.600000000	0.011544400	3516.856657773
1.340000000	47.000000000	0.013334600	3524.665156810
1.360000000	44.600000000	0.015241000	2926.317170789
1.380000000	46.600000000	0.017358000	2684.641087683
1.400000000	40.800000000	0.019866800	2053.677492097
1.420000000	41.000000000	0.023996000	1708.618103017
1.440000000	46.000000000	0.025506000	1803.497216341
1.460000000	48.800000000	0.028978000	1684.036165367
1.480000000	41.200000000	0.033140000	1243.210621605
1.500000000	42.600000000	0.035932000	1185.572748525
1.520000000	44.000000000	0.038888000	1131.454433244
1.540000000	44.000000000	0.042938000	1024.733336439
1.560000000	47.800000000	0.047878000	998.370859267
1.580000000	41.000000000	0.053620000	764.640059679
1.600000000	42.000000000	0.059286000	708.430320818
1.620000000	43.400000000	0.066216000	655.430711610
1.640000000	45.000000000	0.073786000	609.871791397
1.660000000	39.600000000	0.082308000	481.119696749
1.680000000	48.600000000	0.093480000	519.897304236
1.700000000	47.400000000	0.105116000	450.930400700
1.720000000	39.000000000	0.117216000	332.719082719
1.740000000	45.200000000	0.133660000	338.171479874
1.760000000	41.400000000	0.146492000	282.609289244
1.780000000	44.200000000	0.160640000	275.149402390
1.800000000	46.200000000	0.180866000	255.437727378
1.820000000	41.400000000	0.201184000	205.781771910
1.840000000	42.600000000	0.238480000	178.631331768
1.860000000	42.400000000	0.253520000	167.245187756
1.880000000	42.000000000	0.283120000	148.346990675
1.900000000	43.600000000	0.320760000	135.927172964
1.920000000	43.200000000	0.359340000	120.220404074
1.940000000	46.600000000	0.401920000	115.943471338
1.960000000	42.400000000	0.458520000	92.471429818
1.980000000	45.600000000	0.515060000	88.533374752
2.000000000	40.200000000	0.575580000	69.842593558
2.020000000	40.200000000	0.649000000	61.941448382
2.040000000	34.200000000	0.721000000	47.434119279
2.060000000	35.400000000	0.799120000	44.298728601
2.080000000	33.800000000	0.879620000	38.425683818
2.100000000	31.400000000	0.971720000	32.313835261
2.120000000	35.000000000	1.070000000	32.710280374
2.140000000	32.000000000	1.152920000	27.755611838
2.160000000	31.200000000	1.236720000	25.228022511
2.180000000	32.400000000	1.320620000	24.533931032
2.200000000	30.600000000	1.386940000	22.062958744
2.220000000	33.200000000	1.451760000	22.868793740
2.240000000	29.600000000	1.510540000	19.595641294
2.260000000	29.000000000	1.553820000	18.663680478
2.280000000	26.000000000	1.591880000	16.332889414
2.300000000	27.400000000	1.619460000	16.919219987
2.320000000	28.400000000	1.643720000	17.277881878
2.340000000	29.400000000	1.668480000	17.620828539
2.360000000	34.200000000	1.686300000	20.281088774
2.380000000	29.400000000	1.702000000	17.273795535
2.400000000	33.600000000	1.715620000	19.584756531
2.420000000	29.600000000	1.725080000	17.158624528
2.440000000	32.000000000	1.733340000	18.461467456
2.460000000	32.200000000	1.740780000	18.497455164
2.480000000	29.800000000	1.746340000	17.064260110
2.500000000	33.000000000	1.749840000	18.858867096
2.520000000	34.400000000	1.754000000	19.612314709
2.540000000	31.600000000	1.758820000	17.966591237
2.560000000	29.400000000	1.762800000	16.678012253
2.580000000	29.000000000	1.767220000	16.409954618
2.600000000	32.200000000	1.771600000	18.175660420
2.620000000	33.400000000	1.774980000	18.817113432
2.640000000	34.800000000	1.778300000	19.569251532
2.660000000	33.200000000	1.781940000	18.631379283
2.680000000	31.200000000	1.785140000	17.477620803
2.700000000	29.600000000	1.788120000	16.553698857
2.720000000	32.000000000	1.790980000	17.867312868
2.740000000	33.000000000	1.793840000	18.396289524
2.760000000	32.800000000	1.796780000	18.254878171
2.780000000	37.000000000	1.799260000	20.564009648
2.800000000	39.000000000	1.801900000	21.643820412
2.820000000	38.600000000	1.804440000	21.391678305
2.840000000	38.200000000	1.806480000	21.146096276
2.860000000	44.000000000	1.808200000	24.333591417
2.880000000	41.400000000	1.810000000	22.872928177
2.900000000	48.400000000	1.811580000	26.717009461
2.920000000	53.000000000	1.812940000	29.234282436
2.940000000	44.000000000	1.814200000	24.253114320
2.960000000	52.600000000	1.815100000	28.979119608
2.980000000	54.400000000	1.815700000	29.960896624
3.000000000	62.200000000	1.816120000	34.248838182
3.020000000	68.600000000	1.816240000	37.770338722
3.040000000	67.600000000	1.816120000	37.222209986
3.060000000	77.000000000	1.815840000	42.404617147
3.080000000	86.400000000	1.815260000	47.596487556
3.100000000	88.600000000	1.814400000	48.831569665
3.120000000	95.200000000	1.813640000	52.491122825
3.140000000	102.800000000	1.812600000	56.714112325
3.160000000	113.800000000	1.811620000	62.816705490
3.180000000	116.600000000	1.810780000	64.392140404
3.200000000	132.600000000	1.809940000	73.262097086
3.220000000	145.000000000	1.809320000	80.140605310
3.240000000	151.000000000	1.809000000	83.471531233
3.260000000	169.800000000	1.808920000	93.868164430
3.280000000	187.200000000	1.809180000	103.472291314
3.300000000	190.600000000	1.809840000	105.313176855
3.320000000	202.000000000	1.811100000	111.534426592
3.340000000	222.800000000	1.812640000	122.914643834
3.360000000	227.000000000	1.814600000	125.096439987
3.380000000	245.600000000	1.817200000	135.152982611
3.400000000	263.800000000	1.820120000	144.935498758
3.420000000	263.000000000	1.822800000	144.283519860
3.440000000	283.200000000	1.825560000	155.130480510
3.460000000	294.200000000	1.828980000	160.854684032
3.480000000	301.800000000	1.833220000	164.628358844
3.500000000	292.600000000	1.837160000	159.267565155
3.520000000	313.000000000	1.840020000	170.106846665
3.540000000	302.400000000	1.843000000	164.080303852
3.560000000	314.400000000	1.847000000	170.221981592
3.580000000	319.400000000	1.851060000	172.549782287
3.600000000	310.200000000	1.854380000	167.279629849
3.620000000	318.600000000	1.857740000	171.498702725
3.640000000	312.000000000	1.860740000	167.675225985
3.660000000	329.400000000	1.863440000	176.769845018
3.680000000	321.200000000	1.866300000	172.105234957
3.700000000	309.600000000	1.868560000	165.689086783
3.720000000	304.600000000	1.870300000	162.861573010
3.740000000	322.400000000	1.871800000	172.240623998
3.760000000	297.600000000	1.872880000	158.899662552
3.780000000	283.800000000	1.873620000	151.471483011
3.800000000	274.000000000	1.874180000	146.197270273
3.820000000	279.800000000	1.874500000	149.266471059
3.840000000	258.400000000	1.874640000	137.839798575
3.860000000	247.600000000	1.874640000	132.078692442
3.880000000	238.600000000	1.874640000	127.277770665
3.900000000	225.800000000	1.874440000	120.462644843
3.920000000	224.400000000	1.874380000	119.719587277
3.940000000	213.200000000	1.874420000	113.741850813
3.960000000	181.000000000	1.874540000	96.557021989
3.980000000	184.400000000	1.874800000	98.357158097
4.000000000	179.600000000	1.875260000	95.773386090
4.020000000	163.000000000	1.875800000	86.896257597
4.040000000	168.600000000	1.876660000	89.840461245
4.060000000	164.600000000	1.877600000	87.665104389
4.080000000	140.800000000	1.878740000	74.943845343
4.100000000	139.600000000	1.880060000	74.252949374
4.120000000	131.800000000	1.881720000	70.042301724
4.140000000	135.600000000	1.883400000	71.997451418
4.160000000	134.400000000	1.885220000	71.291414265
4.180000000	130.400000000	1.887560000	69.083896671
4.200000000	131.800000000	1.889820000	69.742091839
4.220000000	132.800000000	1.892240000	70.181372342
4.240000000	132.400000000	1.895000000	69.868073879
4.260000000	134.200000000	1.897760000	70.714948149
4.280000000	141.600000000	1.900760000	74.496517183
4.300000000	146.600000000	1.903900000	76.999842429
4.320000000	135.000000000	1.907640000	70.768069447
4.340000000	152.800000000	1.911860000	79.922170033
4.360000000	147.800000000	1.915820000	77.147122381
4.380000000	172.000000000	1.920320000	89.568405266
4.400000000	184.600000000	1.925420000	95.875185674
4.420000000	168.600000000	1.930200000	87.348461299
4.440000000	187.400000000	1.935760000	96.809521842
4.460000000	209.400000000	1.941640000	107.846974722
4.480000000	205.600000000	1.947020000	105.597271728
4.500000000	209.000000000	1.951600000	107.091617135
4.520000000	228.200000000	1.956720000	116.623737683
4.540000000	243.200000000	1.961660000	123.976632036
4.560000000	232.600000000	1.966320000	118.292037919
4.580000000	264.400000000	2.165900000	122.073964634
4.600000000	271.400000000	1.971880000	137.635150212
4.620000000	264.800000000	1.976320000	133.986398964
4.640000000	273.400000000	1.980740000	138.029221402
4.660000000	297.000000000	1.985640000	149.573940896
4.680000000	295.000000000	1.989500000	148.278461925
4.700000000	293.600000000	1.992940000	147.320039740
4.720000000	315.000000000	1.996140000	157.804562806
4.740000000	307.800000000	1.998700000	154.000100065
4.760000000	314.000000000	2.000760000	156.940362662
4.780000000	301.800000000	2.002380000	150.720642436
4.800000000	301.400000000	2.003620000	150.427725816
4.820000000	321.400000000	2.004460000	160.342436367
4.840000000	297.200000000	2.005020000	148.227947851
4.860000000	298.600000000	2.005220000	148.911341399
4.880000000	289.600000000	2.005200000	144.424496310
4.900000000	308.400000000	2.004620000	153.844618930
4.920000000	286.800000000	2.004220000	143.098063087
4.940000000	308.400000000	2.003480000	153.932158045
4.960000000	283.400000000	2.002740000	141.506136593
4.980000000	281.000000000	2.002220000	140.344217918
5.000000000	284.600000000	2.001680000	142.180568323
5.020000000	280.800000000	2.000900000	140.336848418
5.040000000	287.600000000	2.000120000	143.791372518
5.060000000	269.800000000	1.999660000	134.922936899
5.080000000	265.200000000	1.999020000	132.665005853
5.100000000	264.600000000	1.998660000	132.388700429
5.120000000	253.000000000	1.998560000	126.591145625
5.140000000	264.000000000	1.998360000	132.108328830
5.160000000	265.000000000	1.998160000	132.622012251
5.180000000	273.000000000	1.998460000	136.605185993
5.200000000	274.800000000	1.998860000	137.478362667
5.220000000	278.400000000	1.999140000	139.259881749
5.240000000	277.000000000	1.999760000	138.516621995
5.260000000	279.200000000	2.000680000	139.552552132
5.280000000	277.800000000	2.001420000	138.801450970
5.300000000	286.000000000	2.002540000	142.818620352
5.320000000	316.000000000	2.003940000	157.689351977
5.340000000	337.400000000	2.005120000	168.269230769
5.360000000	342.000000000	2.006220000	170.469838801
5.380000000	354.200000000	2.007720000	176.419022573
5.400000000	340.600000000	2.009460000	169.498273168
5.420000000	359.800000000	2.011040000	178.912403533
5.440000000	393.800000000	2.009400000	195.978899174
5.460000000	402.600000000	2.011280000	200.171035361
5.480000000	400.600000000	2.013220000	198.984711060
5.500000000	430.400000000	2.013880000	213.716805371
5.520000000	430.000000000	2.015200000	213.378324732
5.540000000	448.600000000	2.016580000	222.455841077
5.560000000	459.800000000	2.018080000	227.840323476
5.580000000	477.200000000	2.019600000	236.284412755
5.600000000	473.400000000	2.020980000	234.242793100
5.620000000	506.200000000	2.021880000	250.361050112
5.640000000	526.200000000	2.023200000	260.083036773
5.660000000	526.800000000	2.023640000	260.322982349
5.680000000	529.400000000	2.024420000	261.506999536
5.700000000	502.800000000	2.025000000	248.296296296
5.720000000	556.200000000	2.025280000	274.628693316
5.740000000	549.800000000	2.025740000	271.406992013
5.760000000	559.200000000	2.025860000	276.030920202
5.780000000	548.600000000	2.025920000	270.790554415
5.800000000	562.400000000	2.025960000	277.596793619
5.820000000	580.200000000	2.025940000	286.385579040
5.840000000	545.800000000	2.025620000	269.448366426
5.860000000	570.200000000	2.025340000	281.532977179
5.880000000	588.600000000	2.024800000	290.695377321
5.900000000	583.800000000	2.024440000	288.376044733
5.920000000	563.600000000	2.023840000	278.480512293
5.940000000	581.600000000	2.023460000	287.428464116
5.960000000	550.800000000	2.022700000	272.309289563
5.980000000	562.600000000	2.022080000	278.228358918
6.000000000	562.400000000	2.021280000	278.239531386
6.020000000	561.200000000	2.020720000	277.722791876
6.040000000	562.800000000	2.019960000	278.619378602
6.060000000	559.400000000	2.019220000	277.037668010
6.080000000	536.600000000	2.018740000	265.809366238
6.100000000	538.000000000	2.018260000	266.566250136
6.120000000	520.800000000	2.017580000	258.131028262
6.140000000	518.000000000	2.017000000	256.817055032
6.160000000	510.600000000	2.016600000	253.198452841
6.180000000	514.400000000	2.016120000	255.143543043
6.200000000	510.600000000	2.015620000	253.321558627
6.220000000	488.200000000	2.015140000	242.266046032
6.240000000	485.600000000	2.014940000	240.999732002
6.260000000	467.000000000	2.014980000	231.764086988
6.280000000	457.000000000	2.014660000	226.837282718
6.300000000	460.200000000	2.014620000	228.430175418
6.320000000	455.400000000	2.014820000	226.025153612
6.340000000	445.200000000	2.014880000	220.956086715
6.360000000	444.600000000	2.015160000	220.627642470
6.380000000	434.000000000	2.015320000	215.350415815
6.400000000	415.000000000	2.015940000	205.859301368
6.420000000	426.600000000	2.016160000	211.590349972
6.440000000	399.200000000	2.016660000	197.951067607
6.460000000	420.400000000	2.017220000	208.405627547
6.480000000	387.000000000	2.017740000	191.798745131
6.500000000	383.800000000	2.018340000	190.156267031
6.520000000	391.400000000	2.018880000	193.869868442
6.540000000	390.000000000	2.019280000	193.138148251
6.560000000	373.000000000	2.020160000	184.638840488
6.580000000	367.400000000	2.020900000	181.800188035
6.600000000	371.400000000	2.021720000	183.704964090
6.620000000	380.000000000	2.022700000	187.867701587
6.640000000	375.200000000	2.023520000	185.419467067
6.660000000	371.800000000	2.024600000	183.641213079
6.680000000	353.400000000	2.025420000	174.482329591
6.700000000	355.800000000	2.026120000	175.606578090
6.720000000	364.400000000	2.027440000	179.734048850
6.740000000	354.400000000	2.028100000	174.744835067
6.760000000	370.800000000	2.029080000	182.742917973
6.780000000	364.600000000	2.029880000	179.616529056
6.800000000	351.200000000	2.030340000	172.975954766
6.820000000	365.000000000	2.031320000	179.686115432
6.840000000	362.200000000	2.032040000	178.244522746
6.860000000	365.200000000	2.032980000	179.637773121
6.880000000	354.200000000	2.034000000	174.139626352
6.900000000	359.200000000	2.034740000	176.533611174
6.920000000	361.000000000	2.035740000	177.331093362
6.940000000	367.000000000	2.036720000	180.191680742
6.960000000	377.000000000	2.037500000	185.030674847
6.980000000	389.800000000	2.038280000	191.239672665
7.000000000	378.400000000	2.039000000	185.581167239
